Description	SOS-10																																																				
EEM type	"Dilution- & Scatter-corrected, Calibrated Data (ppb QSE)"																																																				
Scan date	10/1/2013 14:14																																																				
Excitation	240-500nm by 5nm																																																				
Emission	290-600nm by 2nm																																																				
Calibration	Michael_Fluoromax4_April08 (07-Apr-2008)																																																				
Slit settings	"5nm Excitation, 5nm Emission"																																																				
Dilution	40																																																				
Row 1	Excitation(nm)																																																				
Col 1	Emission(nm)																																																				
Data	Fluorescence(ppb QSE)																																																				
																																																					
	240	245	250	255	260	265	270	275	280	285	290	295	300	305	310	315	320	325	330	335	340	345	350	355	360	365	370	375	380	385	390	395	400	405	410	415	420	425	430	435	440	445	450	455	460	465	470	475	480	485	490	495	500
290	3.7192	0	0	0	0	0	0	0	0	0	0	0	0	0	0	0	0	0	0	0	0	0	0	0	0	0	0	0	0	0	0	0	0	0	0	0	0	0	0	0	0	0	0	0	0	0	0	0	0	0	0	0	0
292	0	0	0	2.418	2.2366	2.0658	2.8853	6.4875	0	0	0	0	0	0	0	0	0	0	0	0	0	0	0	0	0	0	0	0	0	0	0	0	0	0	0	0	0	0	0	0	0	0	0	0	0	0	0	0	0	0	0	0	0
294	19.2523	0	0	4.7834	4.4245	6.0441	8.4814	12.8356	0	0	0	0	0	0	0	0	0	0	0	0	0	0	0	0	0	0	0	0	0	0	0	0	0	0	0	0	0	0	0	0	0	0	0	0	0	0	0	0	0	0	0	0	0
296	0	0	2.2911	7.0867	9.6952	11.8555	23.4515	19.0187	2.6972	0	0	0	0	0	0	0	0	0	0	0	0	0	0	0	0	0	0	0	0	0	0	0	0	0	0	0	0	0	0	0	0	0	0	0	0	0	0	0	0	0	0	0	0
298	7.5491	0	10.7152	18.8122	15.8464	17.4974	38.0054	25.0108	9.7356	0	0	0	0	0	0	0	0	0	0	0	0	0	0	0	0	0	0	0	0	0	0	0	0	0	0	0	0	0	0	0	0	0	0	0	0	0	0	0	0	0	0	0	0
300	0	0	15.5799	14.2418	21.8227	32.7788	47.9791	30.8288	16.5777	0	0	0	0	0	0	0	0	0	0	0	0	0	0	0	0	0	0	0	0	0	0	0	0	0	0	0	0	0	0	0	0	0	0	0	0	0	0	0	0	0	0	0	0
302	27.7891	0	0	16.5388	28.0699	48.4002	54.4073	41.3283	23.598	0	0	0	0	0	0	0	0	0	0	0	0	0	0	0	0	0	0	0	0	0	0	0	0	0	0	0	0	0	0	0	0	0	0	0	0	0	0	0	0	0	0	0	0
304	36.0339	3.5582	0	20.1369	46.634	64.0877	60.8586	51.8685	30.6438	7.4333	0	0	0	0	0	0	0	0	0	0	0	0	0	0	0	0	0	0	0	0	0	0	0	0	0	0	0	0	0	0	0	0	0	0	0	0	0	0	0	0	0	0	0
306	6.188	6.3414	5.0283	23.8611	40.8741	79.8014	71.6981	60.6419	37.6965	14.8866	0	0	0	0	0	0	0	0	0	0	0	0	0	0	0	0	0	0	0	0	0	0	0	0	0	0	0	0	0	0	0	0	0	0	0	0	0	0	0	0	0	0	0
308	87.9015	38.5068	0	14.6071	56.3726	95.5179	82.5276	67.6265	44.4691	22.3486	0	0	0	0	0	0	0	0	0	0	0	0	0	0	0	0	0	0	0	0	0	0	0	0	0	0	0	0	0	0	0	0	0	0	0	0	0	0	0	0	0	0	0
310	38.749	32.1889	32.0687	39.8519	76.2907	94.4305	93.3777	74.6226	51.2527	29.8231	6.0304	0	0	0	0	0	0	0	0	0	0	0	0	0	0	0	0	0	0	0	0	0	0	0	0	0	0	0	0	0	0	0	0	0	0	0	0	0	0	0	0	0	0
312	72.0674	85.536	52.0131	37.8239	61.4406	101.579	103.6188	80.8652	57.9645	37.0852	11.9977	0	0	0	0	0	0	0	0	0	0	0	0	0	0	0	0	0	0	0	0	0	0	0	0	0	0	0	0	0	0	0	0	0	0	0	0	0	0	0	0	0	0
314	41.6243	22.9582	47.66	34.6377	56.0199	93.4441	113.7494	87.0377	64.8687	39.2773	17.9018	0	0	0	0	0	0	0	0	0	0	0	0	0	0	0	0	0	0	0	0	0	0	0	0	0	0	0	0	0	0	0	0	0	0	0	0	0	0	0	0	0	0
316	70.3675	84.4033	55.4077	59.4336	65.043	91.223	119.7139	92.8309	71.4588	41.3061	23.664	3.7354	0	0	0	0	0	0	0	0	0	0	0	0	0	0	0	0	0	0	0	0	0	0	0	0	0	0	0	0	0	0	0	0	0	0	0	0	0	0	0	0	0
318	102.5312	61.4859	59.7173	54.8369	68.4772	101.4295	115.4524	98.179	72.8805	44.7774	29.225	7.3806	0	0	0	0	0	0	0	0	0	0	0	0	0	0	0	0	0	0	0	0	0	0	0	0	0	0	0	0	0	0	0	0	0	0	0	0	0	0	0	0	0
320	78.8306	69.1923	59.4333	44.6227	72.9848	98.0574	117.7492	103.369	74.2458	49.7616	27.7734	10.9356	0	0	0	0	0	0	0	0	0	0	0	0	0	0	0	0	0	0	0	0	0	0	0	0	0	0	0	0	0	0	0	0	0	0	0	0	0	0	0	0	0
322	103.3604	73.0283	43.1616	75.0307	65.7195	89.7027	115.8748	102.5632	75.2039	54.3558	26.227	14.3337	2.5571	0	0	0	0	0	0	0	0	0	0	0	0	0	0	0	0	0	0	0	0	0	0	0	0	0	0	0	0	0	0	0	0	0	0	0	0	0	0	0	0
324	80.0909	81.7044	63.6108	76.741	77.8501	88.4903	105.2282	91.4467	76.0847	52.4007	26.9291	17.6081	5.0258	0	0	0	0	0	0	0	0	0	0	0	0	0	0	0	0	0	0	0	0	0	0	0	0	0	0	0	0	0	0	0	0	0	0	0	0	0	0	0	0
326	102.0389	70.9543	56.365	59.683	64.3679	80.4567	98.0464	108.2482	76.8542	50.4592	29.7499	17.5895	7.4029	0	0	0	0	0	0	0	0	0	0	0	0	0	0	0	0	0	0	0	0	0	0	0	0	0	0	0	0	0	0	0	0	0	0	0	0	0	0	0	0
328	94.0651	44.6258	82.0171	64.3159	77.2805	90.7103	95.4226	91.016	78.2422	48.5325	32.4345	17.5519	9.685	2.2496	0	0	0	0	0	0	0	0	0	0	0	0	0	0	0	0	0	0	0	0	0	0	0	0	0	0	0	0	0	0	0	0	0	0	0	0	0	0	0
330	85.1085	99.2233	60.5083	60.7764	67.6664	82.1231	93.7182	97.9756	78.3712	46.6434	32.0863	18.5166	11.8742	4.413	0	0	0	0	0	0	0	0	0	0	0	0	0	0	0	0	0	0	0	0	0	0	0	0	0	0	0	0	0	0	0	0	0	0	0	0	0	0	0
332	114.0774	104.4119	73.8155	64.9965	71.6927	85.482	87.3438	96.2227	86.4911	44.3123	31.3875	20.2053	13.2966	6.4207	0	0	0	0	0	0	0	0	0	0	0	0	0	0	0	0	0	0	0	0	0	0	0	0	0	0	0	0	0	0	0	0	0	0	0	0	0	0	0
334	61.9457	76.9548	85.8908	68.1733	66.6447	79.3383	84.4719	83.0956	83.524	53.3791	30.6722	21.7547	14.6086	8.2957	2.358	0	0	0	0	0	0	0	0	0	0	0	0	0	0	0	0	0	0	0	0	0	0	0	0	0	0	0	0	0	0	0	0	0	0	0	0	0	0
336	88.6813	98.8153	82.5052	70.3902	68.6706	75.6383	81.0933	88.3939	71.7331	52.0786	29.9706	22.7083	15.9904	10.0483	4.57	0	0	0	0	0	0	0	0	0	0	0	0	0	0	0	0	0	0	0	0	0	0	0	0	0	0	0	0	0	0	0	0	0	0	0	0	0	0
338	95.7216	99.1412	65.9443	58.2225	69.2003	78.2896	80.0527	72.9352	71.2195	60.3345	29.2838	23.5823	17.432	12.4571	6.6427	0	0	0	0	0	0	0	0	0	0	0	0	0	0	0	0	0	0	0	0	0	0	0	0	0	0	0	0	0	0	0	0	0	0	0	0	0	0
340	98.7996	103.8966	78.4151	75.6412	73.7341	74.0215	76.8689	73.2763	69.6977	53.6685	37.8414	24.3552	18.7496	14.692	8.574	3.1892	0	0	0	0	0	0	0	0	0	0	0	0	0	0	0	0	0	0	0	0	0	0	0	0	0	0	0	0	0	0	0	0	0	0	0	0	0
342	110.3425	63.359	64.4304	71.4478	64.046	65.4381	80.3125	74.1997	67.7347	55.1123	38.7966	25.1636	20.7754	16.602	10.4201	6.2016	0	0	0	0	0	0	0	0	0	0	0	0	0	0	0	0	0	0	0	0	0	0	0	0	0	0	0	0	0	0	0	0	0	0	0	0	0
344	119.6135	90.2814	65.9489	69.0034	65.4007	71.0418	77.6032	73.1079	67.6565	57.4662	37.8846	25.887	22.6557	18.1441	15.0716	9.0372	0	0	0	0	0	0	0	0	0	0	0	0	0	0	0	0	0	0	0	0	0	0	0	0	0	0	0	0	0	0	0	0	0	0	0	0	0
346	115.8008	70.7399	83.1089	68.0009	68.3348	64.6929	72.1654	70.5255	70.8223	51.8662	41.6148	31.6107	24.4547	19.6189	19.4839	11.7266	2.4447	0	0	0	0	0	0	0	0	0	0	0	0	0	0	0	0	0	0	0	0	0	0	0	0	0	0	0	0	0	0	0	0	0	0	0	0
348	100.2223	93.276	81.8463	69.8097	62.9264	68.9837	69.7527	68.2197	71.5603	57.8951	46.4241	41.0263	26.191	23.8059	22.7696	14.2928	4.7675	0	0	0	0	0	0	0	0	0	0	0	0	0	0	0	0	0	0	0	0	0	0	0	0	0	0	0	0	0	0	0	0	0	0	0	0
350	108.3206	111.1596	78.1106	66.6698	70.1616	76.3682	85.713	73.2305	69.1899	58.6749	49.7404	42.6089	27.8071	27.7539	24.9605	16.2482	6.9683	0	0	0	0	0	0	0	0	0	0	0	0	0	0	0	0	0	0	0	0	0	0	0	0	0	0	0	0	0	0	0	0	0	0	0	0
352	107.742	91.4889	89.0421	76.5168	76.1131	74.2158	76.8352	79.3173	67.936	60.8893	55.0425	47.0502	41.0737	31.4692	27.011	18.0853	9.0489	0	0	0	0	0	0	0	0	0	0	0	0	0	0	0	0	0	0	0	0	0	0	0	0	0	0	0	0	0	0	0	0	0	0	0	0
354	114.6898	104.7527	79.5679	75.5882	65.9495	77.0028	77.2324	72.3503	71.4537	62.7402	52.6268	46.5602	43.5145	34.947	28.4782	19.8011	13.0134	6.5915	0	0	0	0	0	0	0	0	0	0	0	0	0	0	0	0	0	0	0	0	0	0	0	0	0	0	0	0	0	0	0	0	0	0	0
356	127.1472	107.2225	95.5447	75.5146	85.5293	82.6177	81.0828	80.1517	77.5221	62.8047	56.0488	55.1247	46.4401	38.3185	31.8752	25.3814	18.8761	12.8662	5.142	0	0	0	0	0	0	0	0	0	0	0	0	0	0	0	0	0	0	0	0	0	0	0	0	0	0	0	0	0	0	0	0	0	0
358	117.8288	122.4505	99.8477	93.7604	75.4804	86.4963	81.4211	82.6119	75.6029	67.0341	63.723	62.5986	53.4358	45.9432	37.1001	30.7705	24.7439	18.89	12.9598	1.9078	0	0	0	0	0	0	0	0	0	0	0	0	0	0	0	0	0	0	0	0	0	0	0	0	0	0	0	0	0	0	0	0	0
360	158.1646	118.9875	97.6138	101.506	89.6236	86.1028	93.7306	81.4798	80.6275	70.791	68.1973	65.7697	60.077	54.0598	42.0681	36.1207	30.3394	24.6403	19.1143	10.2968	0	0	0	0	0	0	0	0	0	0	0	0	0	0	0	0	0	0	0	0	0	0	0	0	0	0	0	0	0	0	0	0	0
362	143.4737	123.0123	118.1817	105.4532	91.7904	94.4048	89.5114	83.2711	81.3707	78.3336	73.272	66.7991	64.9194	57.8417	47.1092	41.6018	35.9318	31.0186	25.1593	16.0774	5.2284	0	0	0	0	0	0	0	0	0	0	0	0	0	0	0	0	0	0	0	0	0	0	0	0	0	0	0	0	0	0	0	0
364	179.703	130.2249	110.6228	105.1192	99.272	101.7443	94.6198	86.9899	84.8449	85.33	77.6511	78.41	70.3741	63.6787	58.5974	46.8949	41.3356	38.5441	31.0073	21.7682	8.9304	1.3619	0	0	0	0	0	0	0	0	0	0	0	0	0	0	0	0	0	0	0	0	0	0	0	0	0	0	0	0	0	0	0
366	171.2293	148.5744	135.6427	104.8017	104.2511	102.0835	98.841	94.0339	88.1753	85.3766	83.4989	80.0405	80.9416	72.2294	64.0996	52.0427	47.9244	45.8552	36.6883	27.7453	13.7688	5.3591	0	0	0	0	0	0	0	0	0	0	0	0	0	0	0	0	0	0	0	0	0	0	0	0	0	0	0	0	0	0	0
368	180.1621	154.3136	137.281	123.8407	124.1457	115.2884	108.3699	104.6076	96.674	94.1089	87.723	90.6026	87.6676	82.702	74.6198	57.0597	54.9975	51.2794	42.2826	33.5587	22.4617	8.6516	1.8637	0	0	0	0	0	0	0	0	0	0	0	0	0	0	0	0	0	0	0	0	0	0	0	0	0	0	0	0	0	0
370	179.7876	171.4992	157.7269	138.0236	130.1411	119.2942	113.9844	108.3396	98.6075	97.2304	99.1995	92.746	95.5432	85.862	79.764	70.6747	61.8441	56.5253	47.8263	39.1903	30.5051	16.1032	6.3486	0	0	0	0	0	0	0	0	0	0	0	0	0	0	0	0	0	0	0	0	0	0	0	0	0	0	0	0	0	0
372	206.0527	187.2645	160.7236	148.155	129.3208	125.1487	117.5596	111.2967	114.0123	106.0651	106.3689	101.148	98.6258	101.3211	92.9264	82.3792	68.8155	62.0371	53.4598	46.9082	37.5978	21.8688	10.2805	2.1034	0	0	0	0	0	0	0	0	0	0	0	0	0	0	0	0	0	0	0	0	0	0	0	0	0	0	0	0	0
374	248.6824	192.4445	175.3461	170.5138	141.5668	135.5656	125.0527	122.7556	119.7245	116.2335	114.5513	109.2627	111.7343	106.6977	99.8816	91.0148	75.6375	69.5343	63.0379	56.4864	44.5449	29.7985	15.2156	4.511	0	0	0	0	0	0	0	0	0	0	0	0	0	0	0	0	0	0	0	0	0	0	0	0	0	0	0	0	0
376	247.0491	212.1426	179.1749	160.3397	156.3972	147.57	140.255	132.4977	126.843	123.7693	124.0066	121.6263	122.367	119.3452	107.117	103.6581	87.0657	78.8244	72.3538	64.6642	51.302	35.9032	21.7943	10.1659	0	0	0	0	0	0	0	0	0	0	0	0	0	0	0	0	0	0	0	0	0	0	0	0	0	0	0	0	0
378	234.3994	235.1643	201.9019	182.6034	160.6184	161.6872	147.3913	141.7329	130.4935	137.5184	135.4002	134.914	132.2305	128.1832	119.5456	113.9614	99.1374	87.819	81.3809	72.5866	57.8498	43.5485	28.2613	14.1061	4.2811	0	0	0	0	0	0	0	0	0	0	0	0	0	0	0	0	0	0	0	0	0	0	0	0	0	0	0	0
380	265.3704	248.5162	220.1123	194.846	184.4958	173.9123	157.2106	145.8589	146.256	141.7519	144.4937	143.567	145.2267	137.3567	133.2564	122.3834	108.2872	96.5773	89.0466	79.5862	64.2263	51.0013	35.0789	20.6437	8.3106	0	0	0	0	0	0	0	0	0	0	0	0	0	0	0	0	0	0	0	0	0	0	0	0	0	0	0	0
382	298.3344	258.4208	236.8153	219.0742	202.132	172.7721	168.9839	158.4859	160.0281	154.505	149.0687	157.5202	152.2099	148.6748	145.2305	130.961	122.0276	105.5789	96.9437	86.0793	72.651	58.5271	43.1422	26.0305	12.4819	2.9687	0	0	0	0	0	0	0	0	0	0	0	0	0	0	0	0	0	0	0	0	0	0	0	0	0	0	0
384	336.7967	283.4393	249.0806	220.5157	201.3715	184.1368	176.1932	165.5154	160.424	157.3872	165.0934	159.0761	166.1797	160.4286	156.4159	143.6783	134.0954	122.5835	104.7097	92.4633	80.9399	65.9321	49.7799	35.9819	17.8162	7.4609	0	0	0	0	0	0	0	0	0	0	0	0	0	0	0	0	0	0	0	0	0	0	0	0	0	0	0
386	316.6001	299.815	252.4879	233.4095	210.9421	199.2294	180.5035	170.8142	169.9963	168.6958	170.355	179.9491	169.9559	171.0629	160.2575	155.9533	146.0891	131.5903	112.7644	101.0073	88.9995	73.4892	56.5199	41.5934	24.6542	12.66	0.949	0	0	0	0	0	0	0	0	0	0	0	0	0	0	0	0	0	0	0	0	0	0	0	0	0	0
388	362.4726	317.781	272.6663	242.2342	224.9215	211.6533	203.3607	185.3766	176.5751	179.388	177.4358	182.1662	186.8456	183.4139	176.9842	164.5572	155.8408	142.0773	121.2028	109.8895	96.9284	80.6028	63.4398	48.9738	30.1131	17.5483	5.634	0	0	0	0	0	0	0	0	0	0	0	0	0	0	0	0	0	0	0	0	0	0	0	0	0	0
390	394.3576	321.8194	293.1679	278.5136	243.7762	226.3529	208.7284	193.1628	190.9735	193.4722	192.3437	198.0089	198.1776	195.5964	184.631	182.6808	168.2561	156.5646	130.1485	118.7674	104.8529	87.7121	70.3555	54.1533	40.1297	22.0711	10.4671	0	0	0	0	0	0	0	0	0	0	0	0	0	0	0	0	0	0	0	0	0	0	0	0	0	0
392	395.4247	344.9236	305.3734	275.7732	243.8869	229.8461	217.8721	204.7461	203.9395	200.5992	198.4043	204.8083	211.0988	205.8363	200.5621	191.9506	179.5249	163.8388	150.9904	126.8774	111.4074	94.2503	78.4762	61.9405	44.0306	28.0715	14.3268	4.4246	0	0	0	0	0	0	0	0	0	0	0	0	0	0	0	0	0	0	0	0	0	0	0	0	0
394	379.8636	370.1089	322.8597	295.5309	262.4006	251.3914	223.9566	217.6251	207.4911	200.8564	207.3472	215.7683	218.2917	211.4673	210.5961	199.953	189.6429	173.7296	158.2329	134.8757	119.6098	104.1163	87.81	69.6252	52.5273	35.3384	19.6498	10.3342	0	0	0	0	0	0	0	0	0	0	0	0	0	0	0	0	0	0	0	0	0	0	0	0	0
396	440.4242	383.4259	342.7229	313.0022	278.5021	253.104	230.4862	222.0352	215.2763	217.202	214.0197	225.391	232.8285	228.7905	223.0933	217.7499	205.1399	190.7192	170.8729	150.9005	129.6298	114.028	96.4938	77.3272	58.8225	41.9056	26.2113	14.742	2.3703	0	0	0	0	0	0	0	0	0	0	0	0	0	0	0	0	0	0	0	0	0	0	0	0
398	469.2572	389.4808	350.1671	335.3727	303.6664	268.4378	247.0376	230.514	227.3338	221.5042	228.5401	241.2129	243.8279	240.6579	236.909	227.6659	216.5819	203.9058	182.4512	163.6536	139.7668	123.3393	105.2539	85.0838	67.2229	51.79	33.8623	18.0381	8.484	0	0	0	0	0	0	0	0	0	0	0	0	0	0	0	0	0	0	0	0	0	0	0	0
400	496.3245	426.7337	374.8496	339.0332	318.2075	288.6178	263.0142	249.69	240.291	239.7017	240.5274	249.9924	251.3854	255.1082	253.6491	241.2531	227.079	218.0356	200.3532	178.1041	149.8358	132.2415	113.083	93.3775	75.5671	57.5372	39.8433	22.4922	15.3661	0.2189	0	0	0	0	0	0	0	0	0	0	0	0	0	0	0	0	0	0	0	0	0	0	0
402	459.0442	463.2216	396.1472	365.1348	336.0537	293.8554	265.822	256.6536	247.2643	240.9836	253.4384	261.8123	266.6249	268.0413	262.8215	255.5814	247.068	234.357	211.9598	191.5058	163.796	140.8407	120.6507	102.6152	83.7113	64.7344	49.0487	29.0072	17.1484	6.7567	0	0	0	0	0	0	0	0	0	0	0	0	0	0	0	0	0	0	0	0	0	0	0
404	510.67	463.1539	430.2829	371.3902	345.2649	312.9711	284.4988	263.91	260.0544	260.9387	265.4919	265.5543	271.2268	279.8787	277.665	271.8096	261.1295	247.6429	225.0682	203.8152	177.288	149.3469	129.3333	111.756	91.7697	72.3511	53.4473	37.0581	21.7323	12.2465	0	0	0	0	0	0	0	0	0	0	0	0	0	0	0	0	0	0	0	0	0	0	0
406	558.5029	475.4529	430.0477	413.9441	374.5553	322.2268	296.8205	282.4934	265.2734	263.0787	271.8229	282.3145	285.704	287.3143	286.9003	284.1562	274.4288	255.9297	239.3862	219.9208	197.4831	158.0554	138.7773	119.9576	99.7618	80.0369	62.3199	42.8224	26.9626	15.8087	2.0367	0	0	0	0	0	0	0	0	0	0	0	0	0	0	0	0	0	0	0	0	0	0
408	556.2421	490.8137	441.2525	400.66	378.6074	344.3538	310.7851	290.6597	276.1014	273.0567	283.4525	291.3062	301.7689	304.1432	299.706	299.6249	291.2079	273.4684	252.1254	234.5277	208.5269	176.3099	148.437	128.3445	107.5687	87.8362	68.6357	50.2482	32.7341	18.8299	9.625	0	0	0	0	0	0	0	0	0	0	0	0	0	0	0	0	0	0	0	0	0	0
410	559.445	546.4748	455.2783	424.2761	392.3879	347.9265	324.3416	292.5243	287.273	288.3066	297.0629	304.7374	311.8866	313.4448	319.757	315.0462	305.2496	290.5456	264.4899	250.2722	221.288	190.5764	158.0713	136.3702	115.3542	96.8657	76.4312	56.3921	40.617	23.8917	13.9802	1.9525	0	0	0	0	0	0	0	0	0	0	0	0	0	0	0	0	0	0	0	0	0
412	547.8346	546.0911	499.6222	444.0786	402.2651	358.9718	337.7522	319.0216	298.0045	297.662	304.1912	310.0594	315.7278	329.4241	327.5691	327.4928	314.0041	299.0099	280.3074	260.8471	235.3501	208.6952	167.6929	145.489	125.6394	107.1292	84.2113	65.6507	44.1927	29.9776	18.1808	7.2218	0	0	0	0	0	0	0	0	0	0	0	0	0	0	0	0	0	0	0	0	0
414	582.8466	583.6807	517.4183	470.4832	421.2498	375.765	346.3415	327.2592	310.4296	306.4185	310.949	316.2449	331.2854	335.2622	335.9277	336.7407	327.0053	310.5677	296.0789	269.1277	249.6887	216.9978	187.3537	155.8568	135.8996	114.8524	91.9713	69.8567	52.0043	34.417	21.5616	12.3032	0	0	0	0	0	0	0	0	0	0	0	0	0	0	0	0	0	0	0	0	0
416	644.7111	572.2001	512.7181	478.0719	439.6624	392.5883	353.5412	330.8577	317.7354	306.2195	317.6339	330.793	344.029	343.1492	348.471	348.3247	341.0266	329.7287	310.4936	290.6519	262.7985	233.9459	201.8349	166.578	146.4679	122.8344	99.9382	77.1754	58.7334	40.1492	25.6872	15.2351	5.0749	0	0	0	0	0	0	0	0	0	0	0	0	0	0	0	0	0	0	0	0
418	650.9767	593.6591	549.4295	489.0309	466.0142	402.0866	376.2746	345.1738	326.025	322.7216	325.2748	329.3366	352.3554	352.1537	363.4627	359.9537	361.2103	340.8781	327.1175	302.2521	278.2331	245.8514	213.1818	177.7253	154.8756	131.1292	108.4738	85.5705	63.5219	46.2634	29.8731	21.2261	10.1142	0	0	0	0	0	0	0	0	0	0	0	0	0	0	0	0	0	0	0	0
420	646.0085	640.5108	564.1617	519.2442	463.6918	415.8646	384.3241	351.4559	342.5823	331.1555	340.1723	345.8425	359.3749	363.7822	377.7307	375.7474	366.6679	356.0023	335.1513	310.8792	288.3881	255.9863	226.6936	188.9446	163.646	140.0938	117.2749	94.019	74.0994	51.1652	35.8624	23.397	14.7586	1.5799	0	0	0	0	0	0	0	0	0	0	0	0	0	0	0	0	0	0	0
422	702.8622	640.9834	585.8249	522.5591	480.6754	438.3471	399.5284	366.6678	349.9989	338.2016	342.3724	351.811	373.6571	380.4073	384.912	386.5867	384.6499	370.0046	353.916	327.5093	301.661	271.2912	238.2247	202.7022	172.8248	149.1518	125.9663	102.5456	78.73	56.9961	41.4319	25.9121	18.8582	7.6843	0	0	0	0	0	0	0	0	0	0	0	0	0	0	0	0	0	0	0
424	700.521	643.8619	579.8234	539.5442	485.4723	452.0479	411.6837	372.7411	357.0745	349.8303	354.067	365.1498	377.2238	382.4	398.2261	398.0331	390.3795	386.2381	364.2269	342.1156	319.2235	280.6796	250.9804	216.1579	182.0648	158.0739	134.7161	111.1298	85.8943	65.2975	47.1565	31.8139	21.9478	11.1528	0	0	0	0	0	0	0	0	0	0	0	0	0	0	0	0	0	0	0
426	682.5986	653.5592	615.9496	552.2673	513.0311	455.0913	431.2015	393.8919	367.695	355.3702	360.8104	370.0589	380.6346	388.0473	403.0066	408.3363	405.822	397.6176	379.1648	359.0856	328.3966	299.7387	262.1408	226.0754	191.6764	167.2267	143.6461	119.0889	93.257	73.0108	52.7756	36.8021	25.7054	15.357	4.3497	0	0	0	0	0	0	0	0	0	0	0	0	0	0	0	0	0	0
428	776.8643	710.7441	612.3023	586.9952	535.1448	480.6533	435.4864	393.1143	376.8411	354.4828	373.0701	382.8924	383.8759	405.7565	412.4456	420.616	418.3267	415.0553	389.7641	365.163	341.5147	308.6548	275.8516	237.8016	205.7402	176.7493	152.9059	125.562	100.8519	77.809	57.7676	42.3177	29.7696	20.3777	8.3559	0	0	0	0	0	0	0	0	0	0	0	0	0	0	0	0	0	0
430	796.1758	708.1329	641.3972	567.9296	540.9257	494.403	453.1223	404.8037	383.6792	375.2919	376.9156	390.7327	410.0058	414.0085	421.5371	425.6716	429.4667	424.3309	404.8358	382.6394	355.5582	322.5113	284.853	255.797	218.4779	186.3855	160.5034	132.1106	108.5397	84.869	63.3941	47.6837	33.794	23.2622	14.428	1.0481	0	0	0	0	0	0	0	0	0	0	0	0	0	0	0	0	0
432	792.5694	698.9367	619.6269	606.8911	551.1006	500.0521	446.1816	414.4857	392.7035	387.0511	382.7308	391.4159	410.0389	419.7945	426.6305	435.3244	440.7972	432.6235	415.7203	396.2216	366.1503	332.0382	299.7286	262.0477	230.0885	195.9199	167.1127	139.882	116.0169	91.9144	69.311	53.4957	38.5342	25.9678	18.967	7.2813	0	0	0	0	0	0	0	0	0	0	0	0	0	0	0	0	0
434	766.7169	698.5265	698.035	642.8766	564.4703	507.2376	467.0312	422.0863	410.4293	377.9886	382.2722	398.8368	406.2884	425.4871	434.4547	445.6823	441.2756	441.6604	432.4113	405.0702	378.4925	347.7767	309.1243	272.7793	240.6913	208.6879	173.7849	147.7311	123.2159	99.0318	75.0167	56.3615	44.1413	29.984	21.4207	13.6081	0	0	0	0	0	0	0	0	0	0	0	0	0	0	0	0	0
436	842.8891	724.9594	679.4834	624.8403	571.8143	517.2994	483.7007	434.7152	407.44	395.0281	395.5178	397.7486	408.1619	432.9487	435.1506	450.7391	455.1476	451.9617	434.3919	415.6258	390.0626	354.2019	319.5648	281.7028	255.8243	218.874	180.7521	155.5016	130.654	106.3573	81.5913	62.401	48.3426	34.6319	23.9676	16.7357	6.032	0	0	0	0	0	0	0	0	0	0	0	0	0	0	0	0
438	807.424	725.0667	702.5466	633.0109	589.1739	545.1449	479.6362	452.0098	419.0746	397.2256	397.4175	404.2332	420.189	432.1695	448.4105	456.6361	465.7	455.776	446.0503	431.7071	399.7875	363.9375	329.297	296.291	259.7182	229.6552	188.0371	163.0714	137.7147	112.947	87.7591	69.6732	55.2767	39.6876	27.6571	19.271	9.9897	0	0	0	0	0	0	0	0	0	0	0	0	0	0	0	0
440	787.671	744.2079	698.9488	650.8731	596.2795	538.3937	494.8026	443.8848	423.2354	407.1214	405.7123	413.2836	426.5553	438.7545	454.9782	465.5638	475.9069	473.3948	464.9504	442.364	406.4222	378.3713	337.487	301.9314	270.5402	240.6993	203.5382	169.7718	144.2237	118.7067	94.014	74.569	57.3668	43.9879	31.9332	21.8405	15.0249	3.3558	0	0	0	0	0	0	0	0	0	0	0	0	0	0	0
442	849.1547	780.1576	696.6118	679.8496	602.5196	542.7543	497.5947	471.3946	428.3433	416.6624	410.6171	419.3998	439.4195	444.7737	462.5545	473.3252	482.5378	482.9985	471.7543	453.1472	421.6175	386.4858	352.0481	312.0389	275.4888	246.727	211.33	176.4219	150.7019	123.2485	100.2786	78.3361	62.1528	48.6293	34.8593	25.9859	18.4058	10.0213	0	0	0	0	0	0	0	0	0	0	0	0	0	0	0
444	849.462	794.2028	726.0776	658.0952	618.553	565.6739	520.8107	473.4897	437.626	417.3474	423.7728	424.0727	436.5147	455.0816	463.8908	474.2064	482.548	484.4596	480.6547	453.1105	427.161	400.6739	360.1012	319.9793	291.661	256.96	223.7239	183.149	156.0577	127.842	106.6217	84.1044	67.8692	53.495	42.118	28.9386	22.6649	12.248	2.9714	0	0	0	0	0	0	0	0	0	0	0	0	0	0
446	832.3816	756.7372	720.9091	678.9853	636.7012	571.3285	527.7027	472.0371	452.5972	424.8852	424.5615	432.5889	443.7376	452.7243	464.3137	476.9283	487.1703	497.3138	484.846	464.2371	441.3156	404.4669	367.2649	330.8329	297.3148	265.529	231.2927	190.0765	160.9738	134.4618	112.235	90.0032	73.8128	60.4994	46	33.4685	25.9855	17.4065	8.1575	0	0	0	0	0	0	0	0	0	0	0	0	0	0
448	827.7736	780.8009	726.8818	696.9236	631.8283	571.1891	526.9484	489.4168	456.0734	438.1755	430.9963	430.2275	446.9745	460.8233	466.8476	483.5436	489.2716	496.6355	490.41	469.2447	447.0827	416.7047	374.0394	338.1701	302.4377	272.6648	238.9896	199.5522	166.0531	141.2581	116.2188	96.0429	79.1755	63.8834	51.8059	37.9037	27.576	20.9861	11.6838	0	0	0	0	0	0	0	0	0	0	0	0	0	0
450	865.0668	788.1882	706.5709	692.6918	662.497	580.1487	539.9027	482.0922	456.7146	438.6754	436.6869	433.9603	446.7685	458.0378	472.3486	487.6046	497.7085	498.8719	493.3393	478.1006	453.7981	422.173	382.1976	343.4052	313.2001	282.094	246.4383	207.6993	171.194	146.3651	120.2524	102.1689	84.3779	68.6845	55.4371	41.6424	32.0024	24.6022	16.5873	5.2473	0	0	0	0	0	0	0	0	0	0	0	0	0
452	844.7317	787.8478	758.1927	704.9665	656.7295	592.8914	551.5638	503.5533	468.0443	434.8056	439.0074	439.4833	454.7783	455.5001	472.7042	488.4977	497.9705	509.1622	498.8461	485.2385	461.6829	424.9998	392.6922	352.3299	318.1566	286.2645	250.8673	216.943	176.4778	150.7065	126.6716	108.1472	89.695	75.6248	59.0962	47.1761	35.6818	26.8614	18.6478	9.817	0	0.3989	0.4681	0	0	0	0	0	0	0	0	0	0
454	931.238	797.4538	736.2942	701.0554	642.337	608.8349	546.806	512.5422	468.0084	443.1761	442.2162	442.8576	448.7823	457.5247	474.8453	487.0528	507.1365	510.6025	499.1413	494.6662	461.0875	435.1179	395.0099	357.6367	328.3879	293.6496	259.7817	223.3818	182.9548	155.1005	133.1827	113.6382	95.0899	79.6284	65.039	51.9817	38.8871	29.8075	23.9211	13.9447	7.5151	1.2067	0.9439	0	0	0	0	0	0	0	0	0	0
456	836.2312	789.3433	731.1437	702.496	659.8674	615.6044	571.221	518.0281	470.4293	452.79	444.0666	440.0702	449.7365	458.1564	476.4976	491.2513	501.9972	504.9095	504.5542	489.3624	467.1281	440.1806	404.0952	360.5747	330.8206	298.1439	262.9015	227.0375	189.9395	159.7936	139.4207	119.3896	100.7174	80.8174	68.7814	53.7113	44.1188	33.7508	27.2742	18.8833	8.0733	2.0307	1.4296	0	0	0	0	0	0	0	0	0	0
458	849.5928	814.8941	726.2026	727.7192	661.0498	604.5879	567.9369	508.605	474.6677	455.9933	444.8636	441.2018	453.9231	458.9275	478.0602	494.0259	504.7759	502.2118	508.0924	496.0006	469.8303	437.8221	408.2573	367.1206	338.0773	305.3865	272.5737	231.8781	196.1868	164.8006	144.8899	123.8351	104.1885	85.2136	73.6808	58.7661	47.5536	37.162	28.4026	22.332	12.8911	2.8747	0.9637	0	0	0	0	0	0	0	0	0	0
460	897.2375	803.5444	732.7429	732.1466	665.1228	623.6943	561.2161	519.7542	495.1283	459.187	456.2257	446.3213	453.7036	453.7916	482.8627	497.2871	507.3791	510.6949	511.5078	494.7899	469.7668	444.4701	410.6691	376.542	343.5446	311.0006	273.4734	241.1826	206.0755	170.7372	148.0358	126.7448	106.8281	89.688	78.208	62.6361	51.1559	40.2625	31.7533	24.635	16.8734	8.0917	0.4871	0	0	0	0	0	0	0	0	0	0
462	859.6251	788.2523	745.2647	727.6064	684.834	616.2534	568.6832	519.9864	495.8725	471.42	459.7607	449.8657	451.3472	457.03	473.3256	498.6435	503.5959	510.4204	507.2185	497.3697	480.6518	450.4883	417.4008	382.3183	347.2926	312.9983	282.6218	243.1525	211.7803	173.6435	151.382	129.8315	109.4761	94.3439	81.5866	66.1008	56.5228	45.3002	35.5328	27.9493	20.0263	11.9052	0	0.3152	0.3712	0	0	0	0	0	0	0	0
464	876.7394	799.9775	780.593	710.7237	691.7194	625.2622	587.3871	513.7486	490.1669	464.1169	462.5415	458.2074	463.1801	463.1084	475.785	489.3077	505.93	512.6848	515.1307	505.0307	478.3346	448.7847	412.9425	381.3723	350.7522	320.0503	284.8027	251.1829	214.4728	182.2543	154.766	132.8114	112.1568	99.0861	84.6272	71.2276	60.4459	48.3384	38.1179	30.5002	24.3802	15.3404	5.0026	0.9568	0.7513	0	0	0	0	0	0	0	0
466	858.515	787.1608	792.3374	730.659	693.4092	622.4534	601.427	532.9901	497.5521	478.6817	457.146	454.3867	462.5519	450.4135	481.268	482.311	499.4969	514.7721	506.9319	498.7254	484.1596	452.0771	416.5153	384.9957	352.372	329.0637	287.6234	255.9907	218.5618	187.5963	158.2364	135.794	117.1619	102.7019	87.7438	75.2036	62.9175	52.1272	43.7416	32.84	25.2535	18.9475	9.7573	1.6138	1.1405	0.3184	0	0	0	0	0	0	0
468	839.8851	781.4542	801.4008	700.8307	695.2551	624.5766	575.5702	530.4438	505.5401	474.9234	465.7331	452.1752	461.7756	468.1009	473.9248	493.5099	499.2719	519.9503	510.2548	500.0302	477.8514	452.647	415.4747	389.1598	356.4491	326.7803	291.8674	258.3472	221.5266	196.7084	163.5409	138.8521	122.2926	103.8888	90.9384	79.914	65.145	55.9899	46.4734	36.195	30.0287	21.5293	13.9514	2.2869	1.5161	0.6445	0	0	0	0	0	0	0
470	820.5732	790.57	769.4753	709.5155	677.3567	633.1201	594.2239	547.4069	508.0227	480.1224	463.9877	454.4988	453.534	463.1328	470.8252	484.7745	496.6645	513.9337	502.5044	498.6348	479.3609	455.2447	416.6138	381.5127	354.8417	335.1779	296.2175	258.5795	227.2226	198.2129	168.7533	141.9444	124.9722	105.074	94.1849	82.1029	70.4276	58.5664	49.0832	38.9471	31.1242	24.4317	18.5913	9.6229	1.9004	0.9784	0	0	0	0	0	0	0
472	802.531	753.4402	749.5081	733.8661	695.8854	640.419	576.9544	550.4691	511.796	480.271	466.0113	451.7806	447.9783	459.2821	462.8827	480.8941	498.9687	503.0881	508.7628	491.0822	474.4538	449.9705	418.4027	388.5003	357.4378	328.6499	304.0579	262.544	232.1182	196.351	172.8831	145.4159	126.695	108.7443	97.3993	84.5212	72.5586	61.3493	53.3875	41.5304	33.0161	28.7241	20.8895	13.6077	2.2988	1.9011	1.0767	0	0	0	0	0	0
474	783.6651	787.0495	742.2065	723.8292	674.8294	634.6431	586.3519	541.4067	509.0871	473.9892	465.5011	452.4636	449.0928	457.9322	462.42	477.2162	486.7643	498.4854	498.3879	491.1829	474.0723	447.0024	414.0835	384.4177	356.2085	330.6777	296.4856	264.0489	234.4989	203.3415	176.0106	146.2189	128.4161	112.4764	100.0276	86.9749	75.5342	65.2529	55.2117	46.8362	35.2912	30.3448	23.8517	15.5405	7.6011	3.4356	2.1839	0	0	0	0	0	0
476	763.2646	770.8627	740.195	681.3798	668.2771	640.9826	592.7131	541.9123	506.2292	485.0201	459.1015	452.1221	453.3491	447.0223	457.8852	471.4943	485.2107	490.5605	492.0258	482.7118	471.9804	447.6029	413.9776	381.2486	356.5588	332.4182	296.9792	267.7017	236.7083	207.5838	179.7983	152.7951	130.0165	115.5213	102.5975	89.3823	75.7711	68.7824	57.1814	48.4669	39.7982	31.1418	25.6761	17.6921	13.4841	5.0076	3.3185	0.7487	0	0	0	0	0
478	741.4204	753.317	721.274	724.2557	679.0951	635.8566	586.201	539.9148	507.9092	473.3476	456.9776	457.5632	453.646	448.3316	460.4214	467.4784	472.5484	485.8311	477.6472	478.4958	463.2512	439.6171	413.8392	381.0753	358.5923	335.2514	306.6962	267.0755	235.5704	208.8732	180.8461	156.0298	131.4963	117.8998	104.5512	90.9032	78.5537	73.0795	61.2809	49.6168	40.7867	33.2304	28.6351	22.4556	15.9761	6.6129	3.9973	1.5152	0	0	0	0	0
480	718.8786	735.1602	765.1958	728.1793	676.5985	625.7401	576.6226	540.6732	509.1143	483.5937	448.7489	442.3094	441.5891	443.0042	454.3838	462.6016	480.128	480.4282	475.9761	469.6207	458.5723	437.0524	410.2967	375.4081	353.2667	332.4837	301.3617	271.258	238.1163	212.9039	181.6815	160.4173	139.6009	119.467	105.9614	92.4187	81.3809	75.3659	62.7629	51.9317	42.9719	35.4472	31.2665	26.3105	18.2147	10.626	4.6913	2.2995	0	0	0	0	0
482	694.1745	714.881	724.6265	703.7394	673.7318	616.0473	573.0144	531.4356	509.7869	475.3956	460.7743	435.6496	437.0514	438.9883	450.366	453.7522	457.0492	474.7263	474.8921	475.2576	456.6461	434.3289	405.8699	378.508	349.9988	327.8534	302.7221	271.5571	239.7426	210.0528	186.8003	160.699	142.8577	120.7881	107.1539	94.2875	84.0786	74.7614	68.0574	56.3473	47.5321	38.3009	32.5534	27.6451	21.5051	13.2298	5.3891	3.0522	0.8497	0	0	0	0
484	668.9152	694.1128	713.7572	697.214	673.6873	628.5576	599.3223	548.7514	505.4456	475.1608	454.0313	446.1475	442.7766	435.937	446.4477	453.9925	466.1673	461.1067	470.9634	465.2566	448.7354	431.2054	400.7979	373.2709	357.1048	331.3134	305.5206	270.1173	241.9043	208.7475	186.9296	161.6428	144.7207	122.1126	108.8883	96.1751	86.8131	76.4214	69.4404	58.1873	50.3333	39.5116	34.3967	29.2618	23.7177	16.6563	10.3366	3.7752	1.7156	0	0	0	0
486	642.9754	672.7241	695.1966	688.4283	649.5284	628.1781	584.4161	541.9494	504.1385	473.2587	458.6372	435.1279	439.0767	427.3399	436.8179	437.2982	453.9898	458.933	465.568	455.6459	448.7472	427.1035	398.9382	373.0345	355.0874	330.2383	295.5394	271.8001	241.3205	214.4508	191.8687	167.2508	148.7315	123.4164	110.8864	99.008	88.7835	78.0842	70.4819	61.4868	51.7827	43.1221	35.0157	31.2357	27.5402	19.525	11.8178	4.5104	2.597	0.279	0	0	0
488	616.3775	650.7338	676.0686	673.1264	651.0368	616.57	572.5574	530.0372	496.3027	472.8377	448.5036	439.87	428.061	427.9909	436.8458	441.1904	454.1653	453.7471	456.9728	454.0935	437.5319	425.6843	392.1533	369.757	346.0095	324.1807	297.9884	269.5785	240.2691	216.3674	190.7741	170.3928	150.4447	130.7994	112.8808	101.8569	89.1772	79.7493	72.456	64.2828	53.887	45.8812	35.3087	33.2514	27.9395	22.2737	15.2779	5.2573	2.4015	0.5629	0	0	0
490	589.2593	628.2834	656.519	670.5813	650.4807	623.2575	573.1108	533.5735	498.8703	477.3371	448.8535	432.1712	417.6349	417.8429	421.5964	432.6222	445.5171	446.6416	452.0663	447.584	428.6924	413.9678	392.7972	365.4889	345.5656	324.848	307.3112	268.9539	241.9827	214.9004	191.3099	167.6669	151.2182	133.2856	114.8933	103.1518	89.5639	81.4316	72.9781	65.2161	56.7269	48.5845	39.5492	32.415	30.0738	25.0137	17.6017	10.0725	2.2022	0.8518	0	0	0
492	562.1659	606.1717	637.1659	661.5951	636.4074	585.2117	578.1705	535.8995	491.6551	471.8738	443.9797	430.5128	423.479	417.8794	426.208	429.662	434.2855	444.985	446.0232	443.4105	429.4019	410.0859	387.3387	362.6728	345.4126	328.0082	304.3227	272.3946	242.478	216.9343	191.8608	171.5691	155.8017	136.7443	117.035	103.7506	91.4171	83.21	74.2377	66.4175	58.4399	50.3435	41.1311	34.5808	30.889	25.3772	21.1004	13.2593	2.0009	1.5282	0.7791	0	0
494	534.4938	583.767	617.3439	656.1029	645.4255	592.4928	560.6852	526.2708	488.7418	456.593	446.8813	431.1851	414.9465	412.7652	413.9991	419.6538	427.7205	427.7671	430.6572	431.334	424.6394	406.6663	383.5885	360.7368	349.094	323.4922	295.8122	268.0823	243.5544	215.7318	195.8215	171.9447	155.5937	138.1572	121.7662	104.3417	93.2893	84.5201	75.5079	68.664	60.573	50.3045	44.535	35.5993	31.7494	28.4675	21.0065	13.9473	8.207	2.6024	1.5732	0	0
496	506.0911	560.6879	634.1171	637.826	635.1998	597.0725	570.3827	518.0643	490.1341	468.4	436.1337	426.183	408.3103	405.7909	403.2161	416.1642	416.6032	424.3671	426.038	425.9759	414.7257	403.7996	377.0811	356.1497	340.0673	321.7354	295.6026	266.1553	239.7151	217.1996	194.3535	168.7086	154.4137	139.7417	123.7049	104.8934	94.907	85.5683	76.7656	67.7042	62.0517	53.5253	46.2722	37.7909	33.734	28.8237	24.8637	17.3418	8.8496	3.6957	2.3816	0.2616	0
498	476.992	604.1247	604.6218	618.9394	618.7825	576.0161	566.367	521.5856	497.0354	461.5887	438.3642	418.4032	404.2436	400.7913	406.2343	407.5588	416.3932	420.4825	416.5218	414.6938	400.007	393.9803	373.3687	353.567	335.2902	317.0991	290.9392	264.4392	241.5721	214.2628	193.9348	169.9044	159.2108	139.8857	123.3663	105.4058	96.0157	86.5955	78.0102	68.3881	62.6071	55.0837	46.8863	38.3728	32.8794	30.7581	26.9204	19.3016	12.0178	4.8072	2.217	0.5278	0
500	550.6996	570.9038	574.574	599.6483	601.0184	576.1294	553.9661	520.7558	475.457	447.3298	430.6322	413.8346	400.9031	392.9804	390.4226	400.4103	403.1004	405.3369	409.1699	411.0224	398.2898	387.6098	365.0213	349.1907	331.6454	309.2313	292.2197	263.6471	239.6569	216.1534	193.0728	173.6644	155.4478	142.7296	126.1202	111.0102	97.1292	87.9249	78.7678	69.0737	64.347	56.8056	49.5438	42.3716	34.1448	31.15	27.7694	20.9737	15.4977	10.8246	2.0493	0.7986	0
502	505.9985	536.931	548.1081	579.7782	605.4381	576.9983	550.7217	504.3956	473.7441	460.8997	416.053	413.1862	391.7149	387.1053	394.2435	388.278	394.7634	400.6097	398.4514	396.9082	387.1798	377.3282	355.9382	342.9554	327.2966	311.0354	289.2671	260.7811	238.1581	213.9228	191.7726	170.4084	154.036	140.7654	125.7951	111.3343	98.2184	89.2375	78.5004	69.74	64.1256	59.6698	52.0836	43.1806	34.9831	31.6053	28.3169	22.213	17.1372	11.9808	1.8777	1.6499	1.7988
504	525.1271	502.3963	525.4964	559.5221	581.2192	549.9619	529.8134	503.3255	473.8368	443.5727	416.5766	399.1316	388.6085	375.6469	385.1721	384.6234	390.935	390.9042	393.0465	389.5721	386.1683	370.5721	351.2917	333.34	322.6177	301.057	280.5764	258.5888	232.5321	211.0331	191.1218	168.5541	154.987	141.1297	127.78	112.2225	99.3121	89.5499	78.2177	70.4079	62.5794	58.2986	52.1424	47.2158	39.4013	30.8221	28.5216	24.185	18.684	14.3195	6.8427	3.0965	3.6276
506	494.9519	467.8603	503.0716	550.7493	558.1317	544.0822	514.3154	495.2531	471.6883	436.0118	418.5568	399.3243	384.9671	376.9344	371.5441	380.836	374.0193	378.598	387.4947	383.1246	370.8161	361.5812	347.0158	326.2868	310.2244	298.1598	280.5946	257.1964	227.1783	207.7344	185.759	166.3461	153.0796	141.5758	128.4345	112.6227	100.5286	89.4513	79.0448	71.1606	63.1314	59.9109	54.058	46.6981	40.3349	31.379	29.4946	25.3735	21.3416	15.66	11.2354	4.572	5.4929
508	400.4941	433.1852	512.4431	526.714	535.1796	536.3256	517.7332	483.532	456.5059	418.8379	412.6363	396.5924	372.1701	368.1496	372.367	366.6419	370.402	372.0963	370.4342	373.8083	363.5892	352.9849	333.2108	321.1153	307.055	298.4108	276.2621	254.2988	228.0467	207.5609	187.1377	167.786	152.7551	141.7891	127.7098	116.6008	102.3276	89.4393	79.9666	71.4556	63.7567	58.9837	54.7182	49.5885	42.6229	34.728	28.7255	27.3192	22.4379	17.5844	11.5102	6.0817	7.4011
510	393.6541	463.4714	485.1372	502.0994	511.6654	534.7142	512.782	491.9093	440.2747	424.1805	399.1725	384.3662	363.323	350.2021	353.732	356.5639	359.71	358.6253	365.2622	360.9389	353.1728	343.9105	332.5793	316.622	303.3592	289.8799	269.9232	247.5788	224.9529	201.677	184.7739	164.8513	155.669	138.6857	126.0545	114.7514	98.6255	89.4075	80.6142	71.467	64.3812	58.4429	55.6208	49.2102	44.7662	35.1186	28.7402	27.331	23.3847	18.8974	13.4858	8.9003	9.348
512	386.5409	404.5012	457.155	476.1745	487.5294	493.7261	496.2839	471.9968	443.5197	413.7353	389.8585	375.4453	362.2377	341.808	346.4057	346.593	352.7047	359.9539	357.0278	357.987	351.2179	336.8912	324.8495	310.5344	297.8137	282.126	265.9211	241.276	221.3743	200.7781	184.4263	163.7963	150.6096	137.1471	124.8138	115.7266	103.507	89.3443	80.6899	71.4546	64.9967	58.488	54.9484	51.6341	45.6369	39.3249	28.1597	26.1285	23.5541	21.8218	14.7796	11.358	11.3321
514	379.2074	411.6119	428.5663	448.9945	462.8445	491.2107	481.6621	467.2619	431.7218	408.2132	380.5765	367.6359	358.5452	342.6292	343.1907	334.9001	337.8375	355.9275	343.3648	349.0159	336.4264	332.7553	317.1093	297.3438	293.1281	276.0414	260.8295	241.4897	215.0622	199.1341	182.4083	160.6478	149.4982	138.9621	122.7539	114.2611	100.6053	93.0091	80.7506	72.1343	65.1428	58.5221	56.5198	51.3078	46.1661	39.3848	30.292	23.27	24.7257	22.6975	17.6404	13.6863	13.6551
516	371.9417	433.8894	399.6842	421.557	463.9614	475.5807	490.8953	450.8204	419.4553	399.0426	388.8152	358.409	348.1653	330.8677	331.5281	329.3631	340.6528	339.8984	335.7958	343.2713	328.2906	320.5572	310.9273	295.5744	286.8928	272.577	255.7218	239.1615	216.4716	198.4052	179.9449	161.4802	145.6773	135.9671	123.2075	113.3229	103.4178	93.9757	80.8584	72.869	64.3812	58.59	55.182	51.7903	46.5258	40.7578	32.6562	23.3977	24.1095	24.1693	18.6856	14.4727	14.4398
518	364.7176	384.1483	370.4339	426.8654	445.4418	459.8769	483.2673	435.8607	420.0761	393.4505	368.9856	354.3363	330.9409	327.1825	326.6068	330.2416	328.8514	329.825	324.3964	329.1771	323.8021	313.8425	302.2105	286.9185	275.7496	263.7582	255.0747	232.4103	212.7049	194.1343	175.3742	159.1784	146.6459	136.2392	122.5055	111.6644	100.8096	90.525	81.0113	72.692	63.6369	58.6904	54.1815	51.6891	49.769	43.286	35.652	24.4733	21.2861	23.8631	19.6194	15.1368	15.1024
520	357.2388	273.5787	380.3058	405.6988	426.4105	443.7148	458.3102	429.9651	410.5677	380.6139	361.7333	351.1285	330.3032	316.449	321.333	315.9381	316.8577	324.2338	321.1933	313.8303	313.6906	308.0072	292.9908	280.9312	270.8811	264.5757	248.0727	226.8419	205.7096	192.923	172.9239	155.6852	147.679	134.2925	121.6327	111.9097	102.7532	93.4901	81.1471	72.0037	63.7791	58.7781	54.1358	51.395	48.1545	42.0117	37.0009	24.0768	18.9558	23.6116	20.4377	17.6297	17.5897
522	349.4834	273.6007	348.8688	383.9604	407.325	427.0671	451.4839	422.6233	403.4295	378.535	358.5939	341.7086	324.6622	312.1273	312.9157	309.4026	307.6379	314.0498	313.2315	311.6762	309.0019	299.263	282.4553	272.7845	269.0063	259.1318	245.5617	225.3531	202.6462	187.8958	173.4489	153.4683	145.2572	134.2627	121.151	111.5265	100.4477	92.1415	83.1576	71.2775	63.9044	58.7126	54.0722	53.2903	47.1239	43.571	38.5876	27.8623	17.4148	22.6623	21.124	17.2135	17.1743
524	341.4756	273.5565	365.0173	361.6815	388.2318	409.967	431.4854	409.1562	393.5794	374.4423	340.1041	330.6155	311.1109	308.312	307.3156	295.2376	301.9685	300.7154	300.5264	303.8232	294.2294	288.2565	279.3534	266.804	260.1268	251.0401	233.3368	221.0809	197.0906	182.5203	169.868	150.1629	141.3345	130.9633	117.746	110.3412	99.8001	90.5291	81.6345	70.518	63.9478	58.5622	53.994	49.7447	48.7425	43.2727	40.2763	31.7268	18.2431	20.2392	21.5596	17.7396	17.6991
526	333.4427	273.6319	361.2474	339.0951	368.9058	395.4618	413.1186	413.3681	390.1357	367.697	344.9692	331.4826	314.1925	298.7607	300.5688	296.9329	296.797	295.2996	302.8764	291.3084	287.7047	279.3755	269.9655	259.7007	253.437	244.6831	228.8854	217.505	195.6597	183.2723	165.7974	152.8595	139.5791	127.0478	117.822	108.7637	100.3065	88.876	80.7936	69.7723	63.88	58.4341	53.9378	49.3623	47.8346	42.7271	38.7135	32.1318	19.9887	15.3892	20.9423	18.9608	18.9176
528	325.3604	273.8207	373.88	316.1487	360.4496	379.4626	394.5105	397.9536	376.3432	353.6762	331.4633	309.8265	307.0722	293.2123	283.563	287.6459	288.392	288.285	290.146	287.0675	286.4706	277.1748	263.3802	254.0225	246.7625	240.8723	229.6881	212.6172	193.7389	177.0376	163.027	148.2422	138.6044	125.952	119.0132	106.9118	98.9436	88.2036	80.2735	71.6634	63.8364	58.4563	53.5781	48.9909	47.7525	43.6265	39.9929	35.2082	21.8868	11.8622	18.3451	19.6063	19.5616
530	316.9943	273.9351	276.1006	314.6822	342.0329	362.9869	375.3651	387.7803	368.2488	344.1384	329.1669	313.8156	298.6774	292.3195	277.6519	282.5592	278.1562	282.9482	283.7016	276.0444	273.9843	272.7427	260.4308	249.7105	240.7036	235.3635	223.2778	206.2316	190.9581	173.8076	159.6006	142.1349	135.2063	127.4697	113.5362	102.4035	95.6061	90.1752	81.2243	71.1256	63.7735	58.4624	52.5387	48.5966	46.3792	43.2677	40.2579	35.1671	26.4422	11.6247	14.7654	20.0515	20.0059
532	308.3914	274.0162	178.0887	309.9266	323.1542	343.9485	355.7385	376.9743	363.8293	332.9903	321.9092	316.0216	292.1956	285.5892	278.096	275.2334	270.7716	269.7707	275.189	271.6632	265.4315	262.1077	249.9695	241.3076	239.5782	229.4099	215.3532	201.0707	183.5721	169.5214	155.5607	141.1128	132.3858	121.6279	114.0165	103.2613	93.7587	87.5671	80.8749	70.9904	63.7006	57.801	51.4676	48.1864	44.7804	43.3256	40.5564	34.0663	28.9214	14.3004	10.5136	17.9586	17.9178
534	299.502	274.0218	200.5184	311.5327	303.7603	322.225	335.5715	359.5398	343.2028	338.7347	314.6353	293.1402	283.9413	263.0484	263.3595	261.3316	262.1715	256.6628	264.7956	260.17	257.3205	252.2868	242.4419	239.2839	228.584	223.997	213.9132	199.1551	179.7375	167.3352	154.0036	134.7657	131.0422	119.8615	112.6189	103.3776	95.4576	85.0244	80.1148	70.9464	63.6081	56.774	51.0833	47.753	44.1902	43.0993	39.719	35.5227	29.4665	19.6919	6.1197	16.612	16.5743
536	290.4764	274.0935	223.5705	312.9767	283.9996	300.0904	324.3028	342.4929	345.0303	317.0373	302.9414	290.8514	274.3553	265.9331	257.5422	260.2446	255.2308	258.6469	255.8841	253.9023	255.3718	248.0879	236.4207	233.3562	222.5884	215.8262	203.2575	195.1747	179.1856	161.2652	152.089	135.6096	126.9405	117.834	107.6077	102.8167	92.1688	85.4713	76.6951	70.8455	62.6177	55.7358	50.7019	47.0892	43.5963	40.205	40.5148	35.4158	28.6185	22.009	5.5636	13.4997	13.469
538	281.2954	231.6134	247.2794	299.658	263.8377	295.2501	309.2455	325.1179	334.9977	305.9788	300.3408	288.1852	275.3005	265.7407	254.0556	254.9981	250.2354	256.6855	250.3942	253.7707	251.4776	241.4498	234.7641	222.1654	220.913	213.6158	204.6677	190.7204	177.7641	156.5415	145.3561	133.1417	123.583	116.3613	105.5372	99.4234	89.5101	81.7288	76.2629	71.1233	61.7686	54.684	50.206	46.3019	42.9972	39.7834	38.1811	35.6053	30.2333	24.5385	8.6215	7.3865	7.3697
540	271.8032	257.555	271.5434	282.6127	266.2493	278.4404	293.7313	307.2283	329.1874	310.9201	288.467	285.1255	264.6219	250.4637	248.2492	248.0139	243.3089	244.4768	240.7454	238.7377	239.5107	232.7615	226.774	216.9939	214.6761	211.0123	193.5291	187.9489	167.3649	152.6918	142.6789	131.4383	121.458	113.4374	103.4987	97.1036	89.2898	82.0718	76.2607	69.0695	60.9568	53.589	49.4474	45.4806	42.3698	39.0331	39.5579	36.2808	30.0132	26.7647	13.528	1.4872	1.4838
542	262.6159	258.5995	249.0126	240.2037	282.8084	261.7637	276.8325	289.5055	313.2869	293.8084	286.4469	267.1387	252.4968	240.9335	240.8105	235.5681	235.8244	236.5038	234.8594	233.6233	230.4311	228.174	220.5509	213.4189	207.6773	202.8544	194.8685	176.0438	164.541	154.2526	141.4422	130.4985	119.7757	112.8015	103.2872	96.1138	88.3748	82.3955	75.1194	68.7678	62.2387	52.2867	48.7686	44.9784	41.7894	38.3417	38.5206	35.4608	31.0061	27.0601	18.6276	0.4277	0.4268
544	343.5375	251.3446	166.6612	94.9488	274.7373	244.5112	257.7424	271.1672	303.5023	298.5766	275.0341	265.2869	253.6488	247.8764	232.4985	235.955	227.4015	233.2463	236.1483	228.6519	231.5429	220.1958	216.0162	205.9525	204.8668	194.5943	190.2373	175.9649	161.2331	148.5536	139.0388	124.1127	117.3903	110.9487	100.8131	93.2437	85.5271	81.32	76.1874	67.0835	60.1752	54.3446	48.0497	44.4428	41.1303	37.6142	36.1397	34.8535	30.7818	27.5551	20.9145	3.2734	3.2659
546	357.5671	264.0367	177.9162	134.7543	288.1855	226.56	237.8936	275.1706	288.8044	284.6004	270.4148	257.5872	248.6041	235.5752	228.3385	231.7081	224.4735	227.2717	226.0519	222.609	219.9502	217.1273	209.9672	198.7402	195.6411	194.0706	183.1651	170.4635	157.4456	145.1585	133.7938	121.395	116.1717	105.4435	101.0095	92.2074	87.183	77.5558	73.6643	64.0038	60.8733	53.8897	47.2649	43.8052	40.4134	36.8304	33.4691	34.4028	30.6534	27.2163	22.1537	8.0201	8.0018
548	378.6685	278.0354	189.8644	175.6074	263.8759	207.9475	256.4067	257.2855	273.467	276.3572	265.3228	254.155	236.4672	233.7464	228.8105	217.4369	219.8304	221.5525	221.6679	212.9241	210.9887	210.1708	202.4697	200.0475	189.9374	186.7354	180.1615	165.984	152.8339	143.0799	132.6711	118.794	110.5458	106.1768	96.8933	89.257	83.0912	77.1351	71.3543	64.9605	58.7523	53.7679	46.4165	43.0885	39.6309	35.9925	32.9047	34.1492	30.1483	27.6776	23.5552	14.3218	14.2892
550	345.2469	292.3162	218.7459	217.5701	265.9604	243.3318	237.424	238.8781	257.6617	268.4525	254.0346	238.1061	235.7033	226.0422	214.8444	218.5661	215.3038	209.4272	207.8045	212.7869	206.0356	202.4546	195.9537	190.5926	188.6229	182.8357	173.7848	161.1973	152.1151	142.6763	130.2099	119.2097	105.408	102.2993	96.0997	85.2596	80.923	75.3494	68.0325	65.2233	58.718	54.0544	46.5927	42.3392	38.8153	35.2838	32.3151	32.062	29.6232	25.9486	23.5854	17.6137	17.5736
552	337.3283	307.7501	266.0411	261.39	256.8083	225.4413	218.525	221.9198	242.0736	265.7758	254.9914	238.8796	223.6183	221.1876	202.6432	205.4326	206.1961	205.4213	208.655	203.152	203.4498	194.2427	190.136	185.076	178.782	177.6141	171.1294	158.4556	150.8372	138.7682	124.771	114.0401	108.486	100.935	91.6289	87.7178	77.9562	74.9494	68.419	63.8603	58.9163	52.8286	47.1845	41.6743	38.1553	34.7255	31.7894	28.5528	29.5009	27.9497	23.0106	19.9638	19.9183
554	398.4618	323.5306	271.6496	227.1466	188.7844	223.2998	198.9675	205.7227	225.9098	250.7953	235.2897	226.0373	224.729	210.7084	205.6319	200.8515	198.7879	200.1721	197.1176	194.2417	196.5895	191.5576	182.9388	180.5832	176.5205	174.3673	165.1661	154.0356	140.2282	130.8369	122.4205	112.274	107.3397	98.157	91.636	84.5814	78.2709	74.4283	67.5306	63.2283	54.8372	51.4476	46.3604	40.9695	37.6235	34.1339	31.2327	27.5857	28.763	26.7355	25.7947	21.0164	20.9685
556	352.2982	296.3859	186.4843	93.6456	14.7494	255.7995	178.8197	189.0295	225.158	237.7244	230.8383	229.735	214.8956	205.5879	199.9534	198.2109	191.8422	193.1454	191.6606	191.8722	185.681	185.7393	180.7838	174.5039	172.8544	167.4395	159.7419	150.6998	137.6427	132.3402	118.6903	108.0961	104.5711	96.3899	88.6827	82.8539	76.4465	67.091	65.7823	62.365	54.867	51.5285	45.1349	42.5616	37.0723	33.6179	30.6045	26.5868	27.1797	26.4302	22.0322	20.3442	20.2978
558	372.7498	306.9786	195.6022	101.5076	60.3977	235.3704	158.0587	202.3365	212.3906	224.2369	231.9982	213.7934	207.6061	193.7499	192.5085	187.63	189.2299	186.2316	182.5849	186.978	180.8922	181.3678	172.6248	173.0197	165.8236	162.2162	154.2442	146.338	135.8468	127.2922	115.7551	105.595	99.3465	93.5841	86.0095	81.2296	75.9818	68.2809	64.5053	58.0481	54.1197	49.4049	45.5809	40.128	36.5003	33.0827	29.8489	25.5543	24.905	26.1631	23.986	20.5843	20.5375
560	309.5452	362.2192	206.5018	110.2952	107.5716	223.1579	186.4511	189.1505	199.1407	210.2403	216.7112	216.526	204.9349	194.3894	185.7258	187.4619	186.0729	182.7673	186.7448	178.5748	178.6445	171.9493	169.4731	167.6761	161.7467	162.693	152.4123	141.2702	131.864	123.0654	112.7943	106.1281	97.6463	91.6729	85.2525	76.6315	73.914	67.3402	63.0213	58.4321	52.8582	49.6214	46.2771	41.3687	35.8936	32.4104	29.056	24.478	19.6866	26.7488	23.8624	20.5233	20.4765
562	357.5091	333.7519	217.6363	141.0729	156.2787	248.0311	192.7554	175.4816	185.147	195.7273	210.8731	211.5455	194.4182	194.5005	177.5771	178.3157	173.6387	174.0328	170.735	172.34	171.2084	167.3601	163.0569	158.678	155.6498	151.033	143.0411	137.0956	127.2418	118.3889	107.0806	101.1169	89.9811	88.2227	83.5345	74.8614	71.5691	65.8627	62.0535	57.2454	54.1711	47.8645	42.7317	38.427	35.2505	31.6483	28.0106	23.3569	20.1395	23.9111	22.9056	21.1276	21.0794
564	267.8638	306.2654	229.0154	194.9462	206.5367	214.9732	194.1509	161.3407	170.4105	180.7098	209.2769	199.2651	190.6274	179.3561	175.934	169.1619	167.4313	172.8503	166.8952	166.1234	163.8059	160.321	155.0813	153.0749	150.2924	146.4298	142.5803	131.6414	125.6175	114.4345	105.5821	98.154	90.2329	87.2698	77.7413	72.6121	70.4828	65.29	59.1325	53.7307	50.1769	46.4735	43.7423	40.2656	35.5873	30.8496	26.9219	22.752	20.5971	22.5937	22.3873	20.7558	20.7085
566	311.4962	326.6083	240.7872	211.0552	185.2635	161.9458	201.5012	146.8189	155.278	187.2117	196.5113	190.9854	179.9013	169.147	172.1914	166.0646	167.2127	160.8982	161.2087	158.5474	158.162	157.4531	153.3966	148.8752	145.8896	141.2417	140.13	129.5309	120.651	107.2448	103.3677	96.0306	88.6786	84.2048	78.2872	72.5384	67.3686	63.237	60.2847	52.762	49.7165	46.905	41.9084	39.9581	34.0269	30.0326	26.088	22.4171	21.0721	20.7013	21.4647	19.1337	19.0901
568	343.867	347.9448	286.8906	185.3475	98.9086	24.7534	200.1894	131.8864	169.6601	171.7106	183.3934	178.7822	175.969	164.3864	166.245	155.677	165.2054	157.1106	155.4854	152.974	155.7375	150.0984	148.023	144.0457	143.6126	136.6929	132.4948	121.0185	116.2339	107.7401	98.6497	93.2173	88.3384	82.2811	74.8738	70.0022	66.3188	59.0187	58.539	52.5553	47.834	44.8116	42.033	38.5068	34.6833	29.195	25.8065	22.0752	21.565	19.9996	23.131	18.3597	18.3179
570	288.0029	308.5946	297.9286	192.6496	103.0498	63.1354	215.8435	154.1416	154.0297	155.6649	169.7943	179.4551	171.8466	159.8428	159.6295	155.5806	154.4526	151.7965	150.3916	151.8641	146.0293	150.2306	143.0454	140.009	133.1407	133.8398	130.4895	119.72	112.1221	104.8354	97.729	89.0523	83.0248	76.0681	71.3204	67.0586	63.7787	59.0233	54.9365	51.9352	47.4547	44.0925	40.393	37.359	35.7927	29.7272	25.504	22.5814	21.7995	19.2667	19.5446	21.1942	21.146
572	310.8505	297.1199	287.0996	197.2619	106.0038	102.9817	212.1815	159.7351	138.1641	140.8891	156.0487	172.5822	161.6335	161.8273	155.1316	152.1642	150.7291	145.628	145.2623	143.5866	143.4032	142.861	135.3879	138.3943	128.9717	130.3056	124.466	120.0581	110.9856	101.8253	92.8972	84.0782	81.0058	75.9596	73.0171	65.7156	61.238	57.8597	54.9636	50.1621	47.1655	40.9979	41.6433	37.6752	34.682	29.8252	25.2344	23.1421	21.5421	18.5421	17.4822	20.1352	20.0894
574	301.2864	271.877	287.9269	201.9189	129.7864	144.249	224.3978	178.3202	121.6905	127.078	141.7531	177.2552	156.7009	159.382	152.4314	142.818	140.8569	142.5684	142.0985	142.7367	142.1849	135.092	135.2157	126.2896	124.8831	127.7259	121.8775	114.1329	104.6579	96.0678	90.9884	86.7628	78.0078	77.8272	67.9517	65.8096	60.1168	54.7729	52.9562	49.2085	44.6304	42.7105	37.8144	35.1602	34.5654	30.2713	24.9408	23.1618	21.2635	17.7819	14.2322	17.8861	17.8454
576	316.8117	308.8822	268.2268	206.6176	175.5346	186.9464	200.0206	175.3273	104.6094	112.7404	162.0309	166.7857	160.1064	143.3012	143.7971	144.7904	140.7545	137.92	139.5682	136.9854	131.5989	130.8781	129.1464	127.5584	124.076	122.6643	115.5946	108.3874	103.299	95.2884	87.4466	83.0046	78.2366	72.3815	66.7346	62.9186	58.089	53.7842	51.4776	46.8118	42.6899	40.7501	38.3445	34.632	32.0692	29.566	24.623	22.8908	20.5283	16.9859	13.9012	18.1607	18.1193
578	259.8662	221.2982	247.5725	211.3578	190.9187	172.1194	158.5994	174.5161	86.9237	147.7455	148.2707	155.8834	155.7985	139.6657	137.4997	135.195	135.6006	134.0826	135.1207	131.4737	131.4335	128.6196	124.3084	122.1175	121.2002	121.2333	114.8642	105.4917	99.7526	90.6327	88.1463	80.3094	75.4657	69.8567	64.5746	62.6546	58.0722	52.6906	49.6157	46.9713	41.132	38.7781	35.5516	33.8735	31.288	27.6609	26.89	22.5981	19.7573	16.4406	13.5516	15.8065	15.7705
580	184.6915	219.0264	245.3852	241.3987	172.481	112.6288	62.4776	191.1409	136.7835	134.1783	133.997	144.5519	141.5668	142.3962	132.507	133.1174	128.1726	132.3977	125.5222	129.5225	124.4484	123.1245	119.5721	119.2062	114.2753	117.3251	110.1049	103.8963	99.3803	90.4582	83.2929	74.8678	73.6461	67.6552	61.272	58.8878	54.6412	51.4522	49.2284	44.9222	41.6755	37.5251	36.0696	33.8186	32.3164	29.0171	26.0021	22.284	19.0961	16.0146	13.1834	13.3684	13.338
582	248.6553	190.0212	206.9369	232.7684	169.7439	114.9045	92.1925	202.7873	135.6818	120.1556	120.9926	132.8307	142.6882	133.418	133.3108	128.5116	119.157	126.7838	127.6305	122.6618	124.5769	116.9543	114.442	114.1401	111.69	110.4147	107.2562	102.2449	93.6702	87.1524	84.4031	75.4377	68.124	65.364	60.113	57.6124	54.5135	48.0382	45.7154	42.4276	40.627	36.73	35.4289	33.8741	30.5147	27.5414	24.9298	21.955	18.7044	15.5714	12.8005	10.0423	10.0195
584	204.0471	230.2516	183.4508	216.6907	179.0732	122.8281	122.8786	197.9701	152.4572	105.6341	109.2921	120.6741	136.6146	129.1281	130.8569	121.9784	119.4283	124.1233	119.1288	117.4218	120.8582	119.3705	111.0069	111.8586	111.436	106.2367	105.3455	96.6303	88.8156	84.0054	77.0921	73.9778	69.1611	65.1968	59.3766	54.9407	50.5505	48.4198	45.0878	41.0084	39.3077	36.2384	34.4493	31.1919	30.6845	28.406	25.7634	21.5165	18.2906	15.2132	12.3988	8.781	5.9756
586	222.9468	182.9848	193.578	213.8488	188.5846	143.5658	154.5168	211.0615	156.6324	90.6005	97.1607	122.7612	128.0452	123.2472	123.8733	116.5973	120.9929	121.5511	116.6184	113.4329	113.5002	112.1756	111.5794	108.0134	105.5468	100.9942	100.2562	95.222	88.053	79.5954	78.252	69.5996	66.6483	62.0898	58.7667	52.956	50.1445	49.0476	43.265	39.905	37.3569	35.8989	34.0517	33.1174	29.398	27.3124	24.8756	21.5088	17.8519	14.8338	12.0633	7.4743	0
588	154.0653	150.8324	195.4761	209.1876	198.2752	177.7398	187.0988	201.1432	152.2594	75.0645	107.0356	108.9156	119.1374	123.0282	121.4388	114.9411	114.6842	114.6631	114.1993	113.9077	106.7229	108.7371	107.4351	106.1772	102.463	100.4665	100.2926	92.6132	84.1347	78.3816	73.8485	65.9194	65.9288	61.0229	54.8621	54.4066	48.3485	47.261	42.3108	40.8618	38.7465	33.7274	32.7154	28.9626	29.0599	25.7909	24.474	19.1887	17.3884	14.4777	11.754	6.123	0
590	278.522	189.7464	207.5192	204.7961	208.1749	190.2252	177.7468	171.4157	165.1945	92.29	93.4195	94.6186	109.9141	114.6312	110.325	111.72	111.1106	103.5384	111.3794	110.1059	101.877	105.7725	101.1984	96.8657	100.4495	98.4138	92.9609	89.9092	83.5745	77.1913	72.2924	64.8671	63.2546	58.0967	56.1671	49.7657	48.5873	43.0758	41.0876	38.9684	37.5857	34.3841	30.7185	29.7572	27.6047	25.3597	24.6663	20.9796	16.9034	14.194	10.9368	4.7284	0
592	244.6165	158.3983	186.3675	209.48	215.1642	163.6842	121.6359	86.5449	147.2558	100.2469	79.6595	82.81	100.7392	117.1625	110.389	107.1117	109.2652	107.3572	107.294	102.0015	103.7083	101.9607	99.5833	96.9307	96.2959	95.7361	91.0494	84.1502	76.5668	75.4451	68.6073	64.7548	60.7498	55.16	53.4977	50.215	45.976	44.5971	40.1295	36.3389	35.2308	33.5796	30.4256	27.4355	27.6457	24.1212	23.422	20.8864	17.7509	13.946	9.6246	4.5332	0
594	227.8737	217.7924	213.8355	204.0737	243.6353	178.8949	121.6922	108.9485	173.932	101.7046	65.3584	73.2213	91.1693	107.9331	104.355	106.8003	103.6686	100.4161	101.9683	102.3313	101.5533	95.8018	99.5178	95.2416	93.5425	90.0481	88.3004	87.0337	77.4009	73.3321	69.5358	64.3484	59.3063	56.6793	50.1658	48.1988	46.7225	42.7189	39.024	37.6819	33.2807	31.3953	28.467	28.5382	26.6239	25.0687	22.1603	20.7805	18.3102	13.6797	8.8274	0	0
596	199.6893	194.9591	183.8036	206.3369	238.7017	165.0461	144.5558	132.1784	174.0753	112.2399	50.5393	63.2762	87.6158	100.2825	100.3568	102.7072	105.2157	102.3532	97.7008	95.8441	99.7633	97.758	90.7222	90.559	88.2249	92.2782	86.5453	79.8162	75.6503	71.4422	65.3706	60.5585	56.7927	52.4671	50.1262	46.8381	43.7799	41.0815	39.2814	36.4665	34.4192	31.4613	28.583	27.5244	24.6035	23.8724	21.1101	20.5585	18.0848	13.4011	9.3908	0	0
598	180.9489	188.4042	152.1069	189.7472	219.4555	189.1317	169.4539	156.2657	181.5774	107.2031	35.1834	65.4695	79.4996	92.3347	104.8358	94.4565	98.4257	101.5121	94.7626	94.8658	93.3919	94.9823	89.8003	84.675	89.1231	87.1847	83.1461	80.1447	72.0269	68.4974	64.4966	57.234	56.846	51.8056	49.0711	44.8271	41.1423	37.7872	34.6115	35.3432	31.8002	31.3719	29.0814	26.185	24.8991	22.9837	22.748	18.6544	17.7804	13.8192	0	0	0
600	271.0349	160.9693	146.0338	177.8703	245.3064	216.592	195.1895	181.1668	174.3461	100.211	42.8394	57.0223	71.0419	84.0429	97.0841	99.2942	95.184	95.5228	94.7927	96.022	90.5942	87.6322	89.8308	86.9848	86.5388	81.9563	82.6515	73.7799	70.843	65.4821	60.1025	57.1173	52.063	51.1151	47.391	45.1756	40.9838	38.513	36.7719	33.1882	31.3709	28.6339	27.3206	25.7721	24.8753	23.4565	21.2031	19.8508	17.3988	14.6053	0	0	0
