Description	PHS-50																																																				
EEM type	"Dilution- & Scatter-corrected, Calibrated Data (ppb QSE)"																																																				
Scan date	10/1/2013 14:09																																																				
Excitation	240-500nm by 5nm																																																				
Emission	290-600nm by 2nm																																																				
Calibration	Michael_Fluoromax4_April08 (07-Apr-2008)																																																				
Slit settings	"5nm Excitation, 5nm Emission"																																																				
Dilution	50																																																				
Row 1	Excitation(nm)																																																				
Col 1	Emission(nm)																																																				
Data	Fluorescence(ppb QSE)																																																				
																																																					
	240	245	250	255	260	265	270	275	280	285	290	295	300	305	310	315	320	325	330	335	340	345	350	355	360	365	370	375	380	385	390	395	400	405	410	415	420	425	430	435	440	445	450	455	460	465	470	475	480	485	490	495	500
290	0	0	0	0	0	0	0	0	0	0	0	0	0	0	0	0	0	0	0	0	0	0	0	0	0	0	0	0	0	0	0	0	0	0	0	0	0	0	0	0	0	0	0	0	0	0	0	0	0	0	0	0	0
292	0	0	0	0	0	0	1.0124	8.0869	0	0	0	0	0	0	0	0	0	0	0	0	0	0	0	0	0	0	0	0	0	0	0	0	0	0	0	0	0	0	0	0	0	0	0	0	0	0	0	0	0	0	0	0	0
294	0	0	0	0	0	2.1206	5.0073	16.0002	0	0	0	0	0	0	0	0	0	0	0	0	0	0	0	0	0	0	0	0	0	0	0	0	0	0	0	0	0	0	0	0	0	0	0	0	0	0	0	0	0	0	0	0	0
296	0	0	0	0	3.4014	6.2838	27.2963	23.7076	0	0	0	0	0	0	0	0	0	0	0	0	0	0	0	0	0	0	0	0	0	0	0	0	0	0	0	0	0	0	0	0	0	0	0	0	0	0	0	0	0	0	0	0	0
298	0	0	0	0	7.8272	10.3285	48.9827	31.177	10.4303	0	0	0	0	0	0	0	0	0	0	0	0	0	0	0	0	0	0	0	0	0	0	0	0	0	0	0	0	0	0	0	0	0	0	0	0	0	0	0	0	0	0	0	0
300	5.2662	0	0	0	12.1278	33.1985	63.1298	38.4293	20.572	0	0	0	0	0	0	0	0	0	0	0	0	0	0	0	0	0	0	0	0	0	0	0	0	0	0	0	0	0	0	0	0	0	0	0	0	0	0	0	0	0	0	0	0
302	0	0	0	0	16.5663	56.3322	71.1496	53.6484	30.9158	0	0	0	0	0	0	0	0	0	0	0	0	0	0	0	0	0	0	0	0	0	0	0	0	0	0	0	0	0	0	0	0	0	0	0	0	0	0	0	0	0	0	0	0
304	46.4011	0	0	0	24.6447	79.5682	79.198	68.9283	41.2981	12.7315	0	0	0	0	0	0	0	0	0	0	0	0	0	0	0	0	0	0	0	0	0	0	0	0	0	0	0	0	0	0	0	0	0	0	0	0	0	0	0	0	0	0	0
306	21.6968	0	0	6.218	38.3218	102.8553	94.9131	81.7324	51.6933	25.4995	0	0	0	0	0	0	0	0	0	0	0	0	0	0	0	0	0	0	0	0	0	0	0	0	0	0	0	0	0	0	0	0	0	0	0	0	0	0	0	0	0	0	0
308	33.1353	0	0	10.2924	64.7452	126.1589	110.6201	92.0285	68.4518	38.2848	0	0	0	0	0	0	0	0	0	0	0	0	0	0	0	0	0	0	0	0	0	0	0	0	0	0	0	0	0	0	0	0	0	0	0	0	0	0	0	0	0	0	0
310	35.0389	16.3512	11.0513	32.8704	85.1033	110.608	126.3587	102.3424	85.245	51.0939	13.2466	0	0	0	0	0	0	0	0	0	0	0	0	0	0	0	0	0	0	0	0	0	0	0	0	0	0	0	0	0	0	0	0	0	0	0	0	0	0	0	0	0	0
312	59.7432	65.0264	29.0779	20.3786	65.8619	120.1496	141.2705	118.2658	99.3413	63.5413	26.3585	0	0	0	0	0	0	0	0	0	0	0	0	0	0	0	0	0	0	0	0	0	0	0	0	0	0	0	0	0	0	0	0	0	0	0	0	0	0	0	0	0	0
314	71.7859	20.8876	38.0716	57.6117	63.5906	141.7209	156.0235	134.0224	111.1834	75.6132	39.3353	0	0	0	0	0	0	0	0	0	0	0	0	0	0	0	0	0	0	0	0	0	0	0	0	0	0	0	0	0	0	0	0	0	0	0	0	0	0	0	0	0	0
316	58.879	75.2164	53.1082	54.752	90.0603	112.9307	169.9788	149.1148	122.4888	87.2657	52.0039	11.8745	0	0	0	0	0	0	0	0	0	0	0	0	0	0	0	0	0	0	0	0	0	0	0	0	0	0	0	0	0	0	0	0	0	0	0	0	0	0	0	0	0
318	84.4151	53.0654	52.8609	54.7782	93.9749	132.9822	188.768	163.3791	132.8993	98.4554	64.2339	23.4669	0	0	0	0	0	0	0	0	0	0	0	0	0	0	0	0	0	0	0	0	0	0	0	0	0	0	0	0	0	0	0	0	0	0	0	0	0	0	0	0	0
320	93.2308	75.0875	43.4606	61.9912	100.5745	140.6501	171.5694	177.2571	143.0217	109.4283	71.3355	34.7766	0	0	0	0	0	0	0	0	0	0	0	0	0	0	0	0	0	0	0	0	0	0	0	0	0	0	0	0	0	0	0	0	0	0	0	0	0	0	0	0	0
322	104.1164	61.5869	31.4898	83.9715	103.0166	146.3522	183.9709	186.7782	152.1448	119.5452	77.8795	45.591	9.5787	0	0	0	0	0	0	0	0	0	0	0	0	0	0	0	0	0	0	0	0	0	0	0	0	0	0	0	0	0	0	0	0	0	0	0	0	0	0	0	0
324	109.5024	88.3636	75.162	101.7595	114.0677	143.2878	182.2779	191.7848	160.8704	124.7837	85.7085	56.0152	18.8296	0	0	0	0	0	0	0	0	0	0	0	0	0	0	0	0	0	0	0	0	0	0	0	0	0	0	0	0	0	0	0	0	0	0	0	0	0	0	0	0
326	133.5262	75.3813	65.8051	79.7155	115.4347	153.5106	187.3123	190.9127	169.1229	129.7074	94.6999	60.0576	27.7399	0	0	0	0	0	0	0	0	0	0	0	0	0	0	0	0	0	0	0	0	0	0	0	0	0	0	0	0	0	0	0	0	0	0	0	0	0	0	0	0
328	111.3273	71.729	94.6482	103.5568	116.2938	152.1593	179.9558	197.5329	182.0164	134.3065	103.2601	63.8857	36.2968	6.85	0	0	0	0	0	0	0	0	0	0	0	0	0	0	0	0	0	0	0	0	0	0	0	0	0	0	0	0	0	0	0	0	0	0	0	0	0	0	0
330	160.7464	103.2058	102.3748	93.392	125.1777	147.8558	180.3709	196.8757	185.3838	138.6353	105.9304	69.4363	44.5082	13.4389	0	0	0	0	0	0	0	0	0	0	0	0	0	0	0	0	0	0	0	0	0	0	0	0	0	0	0	0	0	0	0	0	0	0	0	0	0	0	0
332	142.6182	87.7347	107.5985	104.3089	119.4406	155.1603	187.0581	199.3557	196.8444	141.1614	107.2551	75.7775	45.3603	19.5547	0	0	0	0	0	0	0	0	0	0	0	0	0	0	0	0	0	0	0	0	0	0	0	0	0	0	0	0	0	0	0	0	0	0	0	0	0	0	0
334	180.6212	101.2386	96.939	104.8297	127.7216	159.4519	171.6348	171.6844	183.7821	146.9195	108.2992	81.597	46.0762	25.2677	5.8901	0	0	0	0	0	0	0	0	0	0	0	0	0	0	0	0	0	0	0	0	0	0	0	0	0	0	0	0	0	0	0	0	0	0	0	0	0	0
336	143.7638	102.732	106.6175	123.2207	114.8046	147.7568	172.0926	182.1747	180.4601	156.7114	109.1738	81.069	48.7227	30.6085	11.4161	0	0	0	0	0	0	0	0	0	0	0	0	0	0	0	0	0	0	0	0	0	0	0	0	0	0	0	0	0	0	0	0	0	0	0	0	0	0
338	165.1826	124.7133	111.3803	93.7675	135.3577	157.6887	170.1869	174.9966	170.5574	147.6896	109.8919	80.4969	53.1188	34.3269	16.5952	0	0	0	0	0	0	0	0	0	0	0	0	0	0	0	0	0	0	0	0	0	0	0	0	0	0	0	0	0	0	0	0	0	0	0	0	0	0
340	163.6023	124.8454	92.9244	114.4465	131.9265	149.8209	163.1217	177.6204	180.863	146.6017	117.3777	79.8	57.1375	37.7469	21.4213	6.6916	0	0	0	0	0	0	0	0	0	0	0	0	0	0	0	0	0	0	0	0	0	0	0	0	0	0	0	0	0	0	0	0	0	0	0	0	0
342	140.4683	105.7491	91.3844	118.3184	119.471	157.0336	172.3752	171.105	175.1588	139.4801	112.7537	79.4098	59.9216	41.4897	26.0354	13.0132	0	0	0	0	0	0	0	0	0	0	0	0	0	0	0	0	0	0	0	0	0	0	0	0	0	0	0	0	0	0	0	0	0	0	0	0	0
344	159.1089	116.5809	111.8515	120.9882	136.3939	153.8279	176.4454	168.6504	172.7681	142.4748	123.3019	78.9149	62.4558	45.3457	33.5902	18.9646	1.1853	0	0	0	0	0	0	0	0	0	0	0	0	0	0	0	0	0	0	0	0	0	0	0	0	0	0	0	0	0	0	0	0	0	0	0	0
346	145.8398	113.1983	140.9524	130.0714	137.2704	138.6896	164.0066	175.7186	173.3674	147.3207	125.7151	90.3968	64.9102	49.0341	40.766	24.6099	10.1726	0	0	0	0	0	0	0	0	0	0	0	0	0	0	0	0	0	0	0	0	0	0	0	0	0	0	0	0	0	0	0	0	0	0	0	0
348	185.9995	152.0975	131.9377	119.3442	132.1344	149.4091	163.5494	166.1695	164.529	150.6147	125.1575	97.2207	67.3175	55.6553	46.6759	29.9972	18.7158	7.8679	0	0	0	0	0	0	0	0	0	0	0	0	0	0	0	0	0	0	0	0	0	0	0	0	0	0	0	0	0	0	0	0	0	0	0
350	199.8822	150.6741	132.2486	126.354	138.7484	154.6136	172.7406	171.8713	170.8826	153.4863	128.5322	101.7963	69.5181	61.8759	51.306	37.7993	26.8112	16.2693	3.6878	0	0	0	0	0	0	0	0	0	0	0	0	0	0	0	0	0	0	0	0	0	0	0	0	0	0	0	0	0	0	0	0	0	0
352	205.6478	151.9637	148.5425	132.7581	143.2145	156.9193	171.1829	168.6015	163.4976	152.0722	136.5763	114.3539	87.2923	67.7093	55.6416	45.1621	34.4651	23.7708	13.711	1.8228	0	0	0	0	0	0	0	0	0	0	0	0	0	0	0	0	0	0	0	0	0	0	0	0	0	0	0	0	0	0	0	0	0
354	214.6693	168.442	146.1908	140.0208	147.0357	166.2529	163.8132	172.1011	175.5543	152.5248	138.6624	112.3625	92.7896	73.1445	62.244	52.0793	43.7223	35.9695	19.4759	10.4865	0	0	0	0	0	0	0	0	0	0	0	0	0	0	0	0	0	0	0	0	0	0	0	0	0	0	0	0	0	0	0	0	0
356	197.5217	159.9536	171.3985	148.2959	146.8569	150.5186	168.8747	172.8329	167.2759	153.7273	138.5931	124.8666	103.6753	78.4501	70.6282	62.7502	55.4693	47.6308	34.0897	15.783	4.851	0	0	0	0	0	0	0	0	0	0	0	0	0	0	0	0	0	0	0	0	0	0	0	0	0	0	0	0	0	0	0	0
358	191.9807	196.4845	174.9368	162.8118	163.2659	165.8562	168.4622	170.7435	182.8722	159.5979	147.9945	136.6806	116.8405	96.783	80.7499	73.0903	68.5182	58.8826	46.9532	29.1321	17.357	0	0	0	0	0	0	0	0	0	0	0	0	0	0	0	0	0	0	0	0	0	0	0	0	0	0	0	0	0	0	0	0
360	234.489	198.8187	176.7073	169.8378	171.403	167.9638	171.2945	180.185	181.9994	167.1815	147.7699	134.2503	122.902	108.9948	90.3674	84.5839	80.9527	69.6038	58.1306	40.3524	19.8112	5.0416	0	0	0	0	0	0	0	0	0	0	0	0	0	0	0	0	0	0	0	0	0	0	0	0	0	0	0	0	0	0	0
362	237.2741	210.8362	197.8866	175.8185	176.5411	186.9454	194.0317	178.2228	188.0393	172.752	161.8095	147.5072	135.2179	120.6059	100.183	96.9904	91.5158	81.4378	69.2536	50.2419	31.4057	15.3103	0	0.0339	0.039	0	0	0	0	0	0	0	0	0	0	0	0	0	0	0	0	0	0	0	0	0	0	0	0	0	0	0	0
364	248.0529	245.2838	210.9238	202.2405	189.8954	190.3422	196.7875	198.5706	184.4371	183.9431	175.083	159.6036	145.3157	130.997	122.4952	108.9734	101.7129	95.0025	80.0049	62.1004	40.3628	24.795	5.0232	0.1	0.0769	0	0	0	0	0	0	0	0	0	0	0	0	0	0	0	0	0	0	0	0	0	0	0	0	0	0	0	0
366	283.2763	243.6024	207.9229	219.2972	199.2335	196.5439	192.1713	200.8436	203.9549	191.7639	182.6141	166.0351	157.193	145.1049	132.9964	120.6319	113.7318	108.1919	90.4586	72.5373	49.1336	31.1123	15.9914	0.1641	0.1136	0	0	0	0	0	0	0	0	0	0	0	0	0	0	0	0	0	0	0	0	0	0	0	0	0	0	0	0
368	322.7371	265.0883	240.2352	224.8902	212.2166	207.8528	208.705	207.1146	213.7974	200.8305	185.378	174.6661	169.5377	158.1779	147.1128	131.9982	126.4792	118.1756	100.5746	82.6988	63.5036	39.6564	23.9221	0.2265	0.0746	0	0	0	0	0	0	0	0	0	0	0	0	0	0	0	0	0	0	0	0	0	0	0	0	0	0	0	0
370	317.9778	279.97	261.3358	232.4339	222.1634	220.8827	221.4487	223.5408	222.7284	212.3737	201.2597	187.9738	183.596	172.8249	165.7395	152.8424	138.8089	127.8224	110.2227	92.5337	74.6862	50.5516	32.4811	10.4228	0.0367	0	0	0	0	0	0	0	0	0	0	0	0	0	0	0	0	0	0	0	0	0	0	0	0	0	0	0	0
372	356.6294	291.9875	281.5256	240.185	246.9352	243.6027	239.1414	228.5408	234.6579	216.9319	211.9018	206.3266	193.2207	183.2819	175.7735	165.668	151.4959	137.7032	120.1559	107.388	88.9452	62.4735	41.554	21.026	0	0.9748	1.1393	0	0	0	0	0	0	0	0	0	0	0	0	0	0	0	0	0	0	0	0	0	0	0	0	0	0
374	430.2418	310.8154	288.9346	272.7027	267.2573	248.8675	248.6328	233.9511	237.488	235.659	227.7115	212.2037	215.8423	201.6153	196.6831	184.3169	163.9082	152.132	139.4922	126.7144	102.9131	79.0477	47.9578	32.868	8.4513	2.8951	2.2557	0	0	0	0	0	0	0	0	0	0	0	0	0	0	0	0	0	0	0	0	0	0	0	0	0	0
376	383.4466	340.6689	305.2405	297.482	271.0075	270.6751	255.754	258.4037	247.6257	248.0417	237.0427	238.5683	225.4146	219.6372	211.4884	203.4509	185.2941	170.8913	158.293	140.9538	116.488	91.0021	58.3685	40.0481	18.7004	4.7724	3.3464	0.6864	0	0	0	0	0	0	0	0	0	0	0	0	0	0	0	0	0	0	0	0	0	0	0	0	0
378	407.7695	378.8275	344.2723	308.7478	295.4601	279.8797	287.2199	274.458	267.5167	264.6892	251.1484	251.8428	242.5035	238.8651	226.7439	221.8685	202.6141	189.0472	176.5041	154.7192	129.631	105.4581	74.0207	48.8478	28.4808	6.6015	3.7804	1.3564	0	0	0	0	0	0	0	0	0	0	0	0	0	0	0	0	0	0	0	0	0	0	0	0	0
380	471.7411	423.2766	378.6527	324.825	326.1857	305.5871	298.2498	281.1432	277.367	280.6669	270.2667	264.9015	263.1918	257.8255	250.3075	234.3632	220.1112	206.729	189.7487	167.7561	142.4295	119.5471	88.5919	59.3871	34.1018	17.7003	4.2029	2.01	0	0	0	0	0	0	0	0	0	0	0	0	0	0	0	0	0	0	0	0	0	0	0	0	0
382	491.0532	431.4421	393.1113	349.4821	325.9789	312.6921	316.5133	304.5395	299.2071	292.6861	287.4255	278.5628	276.6646	269.3971	261.7632	256.3544	247.5329	224.9608	203.5506	180.8999	158.5697	133.8773	106.3409	68.5822	45.123	29.6705	4.6349	3.7999	2.1113	0	0	0	0	0	0	0	0	0	0	0	0	0	0	0	0	0	0	0	0	0	0	0	0
384	494.1442	482.6613	425.5317	375.7434	365.3665	333.6533	332.4904	317.9844	306.5999	306.374	300.9853	296.0905	293.4463	281.5918	285.4816	273.4123	259.6478	240.2331	217.122	193.8255	174.4522	147.9782	118.1404	86.4043	56.321	36.3568	14.9981	6.6935	4.1897	0	0	0	0	0	0	0	0	0	0	0	0	0	0	0	0	0	0	0	0	0	0	0	0
386	563.9145	481.2092	416.7287	401.2597	377.6511	358.5963	348.2924	334.6647	327.7959	318.2453	308.2941	316.1048	312.8148	304.4219	289.4354	287.5656	280.1855	262.734	231.326	210.2906	189.9398	162.4544	130.2315	96.906	70.4748	46.4712	25.6363	9.5768	6.2583	1.257	0	0	0	0	0	0	0	0	0	0	0	0	0	0	0	0	0	0	0	0	0	0	0
388	594.5583	513.7407	442.827	431.1868	400.7952	370.1721	360.4763	358.643	331.4404	337.2095	324.2184	324.4637	337.198	322.0496	316.3144	308.9	292.744	278.1908	246.3325	227.4725	205.2233	175.336	142.7553	112.0594	80.4257	59.0803	33.2368	12.482	7.0776	2.5127	0	0	0	0	0	0	0	0	0	0	0	0	0	0	0	0	0	0	0	0	0	0	0
390	611.9625	565.4896	503.3451	450.7512	413.9163	401.8371	390.0997	361.188	351.1423	344.5552	341.1517	348.4968	343.6432	341.7583	341.1259	328.1206	312.9544	301.0601	273.8029	244.6516	220.5028	188.2124	155.2739	124.6322	97.6314	65.9473	43.9426	23.7394	7.8961	3.7672	0	0	0	0	0	0	0	0	0	0	0	0	0	0	0	0	0	0	0	0	0	0	0
392	640.5332	571.4693	510.4008	474.0785	442.0126	430.8122	399.9926	385.8027	371.8443	366.3288	362.7348	363.7536	357.9099	354.4889	345.3975	337.8626	327.9999	315.1695	294.2417	260.2577	232.1982	199.8794	170.7723	139.9597	109.3726	77.8456	51.1951	29.1095	8.6618	5.9663	2.6123	0	0	0	0	0	0	0	0	0	0	0	0	0	0	0	0	0	0	0	0	0	0
394	675.1247	599.2127	530.4253	501.2535	474.6137	440.665	420.4293	401.2588	383.2856	380.6355	375.8068	376.0752	375.0454	380.0134	369.2507	366.2338	349.9128	334.3436	312.8889	275.6518	247.8882	219.5516	189.253	155.0887	127.5057	92.0674	61.5997	39.3818	17.5141	9.1061	5.1909	0	0	0	0	0	0	0	0	0	0	0	0	0	0	0	0	0	0	0	0	0	0
396	700.0878	594.8345	543.0766	530.5831	478.5571	466.2265	453.9101	420.5634	404.5426	400.4945	393.16	394.7474	387.3965	388.919	390.2576	378.6791	368.6827	349.9096	331.4531	296.7997	267.9179	239.341	206.2617	170.2828	135.9	108.7296	72.9981	48.0084	27.1006	12.2236	7.7476	1.1377	0	0	0	0	0	0	0	0	0	0	0	0	0	0	0	0	0	0	0	0	0
398	699.4386	653.6616	587.7344	549.1775	502.8415	481.3625	458.8265	437.5173	417.8235	414.1149	407.6432	416.561	408.6282	409.519	406.241	401.5256	394.7125	372.8633	352.1926	323.1489	288.2042	257.7476	223.4522	185.6166	152.6131	122.7439	89.3835	59.573	37.625	15.3334	7.7923	2.2675	0	0	0	0	0	0	0	0	0	0	0	0	0	0	0	0	0	0	0	0	0
400	770.78	712.754	631.6522	557.5311	544.6936	504.3761	492.2129	455.2001	440.1396	423.9777	425.8116	428.8278	433.5276	436.0893	424.9149	425.9062	408.1212	398.4249	377.8275	344.6811	308.3625	275.2396	238.9529	201.9419	169.2196	136.5194	100.9566	69.4521	48.1009	24.0128	7.8365	3.3894	0	0	0	0	0	0	0	0	0	0	0	0	0	0	0	0	0	0	0	0	0
402	776.2428	700.8552	638.5176	598.1384	565.117	535.5293	498.4672	466.3956	464.5973	447.4056	438.951	448.9071	450.8167	453.0128	451.2577	440.9379	437.7792	419.0027	394.4068	367.6072	328.3875	292.114	253.9134	219.9611	185.3999	151.174	115.2714	81.0251	56.4993	33.9139	7.8668	5.4669	2.4773	0	0	0	0	0	0	0	0	0	0	0	0	0	0	0	0	0	0	0	0
404	831.011	727.3863	700.6876	622.5319	580.8479	544.6999	528.7953	505.7801	482.804	462.2964	469.8331	460.9151	462.9971	471.3561	468.5855	465.1914	456.4314	442.3064	413.3985	395.3354	353.6163	308.8104	270.9334	237.7964	201.4138	165.4032	129.6564	95.5955	65.5716	43.7788	19.8729	8.4889	4.9288	0	0	0	0	0	0	0	0	0	0	0	0	0	0	0	0	0	0	0	0
406	838.2248	774.3563	690.1834	648.6248	625.8121	592.7957	546.9923	514.0318	501.5625	483.8099	491.0557	486.4923	485.2533	486.044	495.0377	488.9037	475.6548	463.0459	435.5373	415.2151	376.8996	325.94	289.4216	254.1589	217.0426	179.8204	142.4052	107.5254	74.9967	53.6401	28.2101	11.5004	7.3682	0.719	0	0	0	0	0	0	0	0	0	0	0	0	0	0	0	0	0	0	0
408	826.9859	815.3386	704.7763	663.332	648.6649	604.9352	579.3362	538.1677	523.243	503.7143	498.5378	497.5609	503.4145	505.1281	506.6285	502.9847	496.5283	479.4625	470.7168	434.5704	400.4218	351.3466	308.3735	270.9252	231.7567	194.5102	158.4484	120.71	84.5626	61.0337	38.205	14.5185	6.5717	1.4357	0	0	0	0	0	0	0	0	0	0	0	0	0	0	0	0	0	0	0
410	913.3902	848.8049	814.1003	708.7927	674.0824	641.0045	590.5276	552.0899	536.5125	523.6814	520.951	518.8892	533.984	524.2282	531.8364	533.4248	523.5617	506.3197	485.6208	458.0709	420.6391	379.4737	327.2826	286.3824	246.4345	211.3374	172.983	136.2558	98.3919	69.3014	46.2791	23.8936	5.7776	2.1501	0	0	0	0	0	0	0	0	0	0	0	0	0	0	0	0	0	0	0
412	966.4824	858.2465	805.3145	781.7452	708.4623	661.1954	620.6604	578.6017	563.2757	543.7404	536.6899	535.6296	540.2693	542.708	541.0203	543.8558	536.7119	526.571	511.422	475.1131	444.225	403.4021	346.1753	303.4057	265.462	230.3138	187.4948	152.3799	113.0372	81.8947	57.6668	33.3966	4.9865	4.1067	2.3049	0	0	0	0	0	0	0	0	0	0	0	0	0	0	0	0	0	0
414	939.8059	874.6312	804.7061	802.4497	737.7213	669.4579	629.7477	601.7635	586.4683	569.9029	554.3653	547.8772	551.5907	568.2798	567.1671	569.1995	557.1379	549.9819	534.146	495.1277	467.2381	427.1865	368.455	322.6051	284.4494	244.7339	201.9727	162.9004	125.0227	89.6903	63.085	42.5078	18.462	7.3002	4.6031	0	0	0	0	0	0	0	0	0	0	0	0	0	0	0	0	0	0
416	1033.5072	909.3801	836.2169	788.8436	757.5154	702.397	681.7884	621.9758	601.7272	575.8209	567.9406	564.3314	572.9662	563.7165	585.5724	586.8366	584.4787	565.6367	547.7549	523.5759	489.6144	446.47	393.2512	342.5455	304.0909	259.7115	216.9106	174.4626	136.7814	103.2043	74.2853	49.5113	29.8755	10.5082	6.9101	1.2372	0	0	0	0	0	0	0	0	0	0	0	0	0	0	0	0	0
418	992.456	965.1912	898.5853	835.6748	798.9258	746.0162	697.6841	663.1184	621.7015	613.0308	586.4404	584.1719	584.1536	590.2931	601.0196	614.177	607.2329	592.3135	572.7689	541.9507	508.5078	468.9909	419.0056	363.3633	319.9525	275.3484	234.2044	190.7721	149.5004	117.0617	81.9475	61.0127	37.8098	13.7524	7.4959	2.4819	0	0	0	0	0	0	0	0	0	0	0	0	0	0	0	0	0
420	1129.6532	991.3295	941.5772	841.5434	812.0357	762.6041	730.1846	679.2359	643.7193	624.9075	600.6393	599.7136	608.8405	612.4241	616.7039	629.1599	625.6766	616.3734	598.5539	570.3989	533.7934	489.0023	437.8415	384.3228	337.7303	294.6921	252.6743	207.1903	167.4003	125.7788	94.4259	64.8162	48.1689	25.4093	8.0851	3.734	0	0	0	0	0	0	0	0	0	0	0	0	0	0	0	0	0
422	1107.291	1050.0637	951.0336	883.8143	867.49	778.2262	753.6263	691.6977	664.921	625.8719	632.5776	616.8553	627.5774	630.9816	634.8114	645.5801	648.3655	632.3365	618.7182	594.1404	552.2567	511.0135	467.27	410.2471	357.5331	314.2446	269.8461	223.7709	176.6716	142.2639	104.7796	74.8389	55.0248	35.8353	8.6798	6.4086	3.1192	0	0	0	0	0	0	0	0	0	0	0	0	0	0	0	0
424	1141.9773	1035.6098	966.2801	936.239	872.8559	808.1286	763.4106	732.5112	670.9503	659.3539	635.0573	633.9662	630.7858	637.1968	654.8044	657.3625	662.4323	657.1931	639.8968	611.1509	572.3068	538.5906	480.3638	428.4217	377.4775	332.4415	287.139	240.4685	191.5512	151.4077	115.9384	85.9574	64.5055	41.8799	20.2243	10.5192	6.259	0	0	0	0	0	0	0	0	0	0	0	0	0	0	0	0
426	1157.406	1032.1128	1007.9737	928.7021	901.6806	854.2998	796.8413	750.1414	711.7531	663.1776	659.2883	644.8086	654.8639	654.8953	663.1946	681.6959	675.4755	672.5499	657.672	634.339	596.8544	550.8891	500.3857	453.5201	398.2112	350.5838	304.5751	256.683	206.8694	167.5866	130.7651	94.5276	70.1619	51.7785	29.9397	14.6804	9.4345	2.2905	0	0	0	0	0	0	0	0	0	0	0	0	0	0	0
428	1208.4412	1052.6211	1048.8247	991.7364	936.2979	847.3179	810.1694	759.3555	725.7563	688.0666	679.967	673.0184	666.3279	678.6294	687.1866	692.4304	698.3741	697.6361	688.2332	657.8794	625.7927	574.4266	523.0416	477.264	423.5918	369.498	322.7006	271.4457	222.6969	176.2767	140.2655	106.9004	79.504	60.2658	39.1274	18.9122	11.6841	4.6105	0	0	0	0	0	0	0	0	0	0	0	0	0	0	0
430	1203.1125	1103.1626	1051.0183	1009.8017	948.933	882.5635	852.9055	794.9486	755.3719	715.9598	683.1934	690.3934	691.7289	692.6941	696.7167	714.1279	714.7011	716.7796	707.056	685.7385	641.2779	599.4594	545.993	492.5613	443.1264	388.6437	338.9862	286.3872	238.7226	191.5324	152.0115	119.784	90.9929	66.5328	47.6316	25.2217	13.9617	6.9602	0	0	0	0	0	0	0	0	0	0	0	0	0	0	0
432	1234.399	1140.7031	1084.3112	1027.8654	972.5773	897.2799	874.3087	812	759.1463	721.4909	709.1325	710.4459	697.7562	700.9098	705.5866	731.9749	729.4494	738.6319	723.1192	704.155	660.2437	618.7765	563.767	515.3426	463.778	407.5711	354.0383	302.5857	254.4804	206.752	164.8343	128.7916	100.6272	75.2774	56.6198	35.6517	16.2497	10.338	3.9031	0	0	0	0	0	0	0	0	0	0	0	0	0	0
434	1200.2645	1179.0372	1098.5577	1031.6915	1009.862	945.5579	890.2273	824.4618	768.9349	745.8274	734.9966	704.606	709.7817	722.9195	722.9408	738.6194	755.9645	753.299	742.4947	716.6082	678.1384	639.3433	582.8604	535.2379	490.2764	432.9116	369.2407	318.9511	270.0292	222.1318	177.1478	140.0998	113.1484	83.5744	65.079	43.8194	22.9787	14.7652	7.8475	0	0	0	0	0	0	0	0	0	0	0	0	0	0
436	1239.7204	1204.8198	1119.0435	1046.1351	1022.4887	968.7297	888.8602	847.7397	806.2102	757.8905	735.2266	728.7552	719.0026	727.1104	748.2787	758.7013	768.8174	768.3562	755.456	732.6671	697.9467	653.2831	604.6776	547.5101	503.3411	444.1774	385.0901	335.54	286.1059	237.9776	188.9329	152.9568	120.3635	94.1122	70.7202	51.7101	32.5226	19.2633	11.8485	2.872	0	0	0	0	0	0	0	0	0	0	0	0	0
438	1242.7414	1190.3691	1164.9701	1094.38	1043.7594	1002.5531	926.8361	847.4121	825.8735	777.2548	750.9661	730.3849	738.1319	737.167	755.0607	776.3869	780.4377	778.135	781.1774	762.0788	722.6128	682.8995	621.7097	569.9627	524.5624	473.1525	401.6399	351.6496	300.8846	251.5065	201.9043	165.4866	134.5405	105.0815	80.6919	61.6812	40.4939	23.8492	14.7573	5.7887	0	0	0	0	0	0	0	0	0	0	0	0	0
440	1316.8951	1203.5187	1128.5718	1140.6666	1070.315	989.1289	959.1022	906.1208	839.1178	788.5081	759.6433	757.1819	744.5406	754.9937	768.1734	792.627	800.5961	801.3229	789.8912	775.2805	744.0833	695.3254	642.585	587.2577	533.1157	485.5298	422.1722	365.1318	313.9693	263.2757	215.0605	172.3533	146.3171	116.7689	90.3166	67.1217	48.4094	28.8592	17.7097	8.7499	0	0	0	0	0	0	0	0	0	0	0	0	0
442	1348.8541	1251.4801	1180.7438	1157.0658	1101.3795	1045.7377	970.7392	908.6062	843.5889	807.6415	761.1903	759.0988	761.5067	764.1117	784.5166	792.5126	815.2183	819.8767	805.6504	794.0069	754.4987	714.516	652.9873	604.9626	558.6551	500.5392	443.3437	378.4942	326.9731	272.9875	228.2248	185.3676	155.7356	128.4855	98.6673	76.8659	58.1676	38.5133	20.6895	12.3118	4.0516	0	0	0	0	0	0	0	0	0	0	0	0
444	1395.6092	1292.5121	1233.9447	1160.1091	1109.8079	1059.4585	987.2342	923.507	867.1379	810.7232	780.4035	777.3633	776.0195	763.2809	795.4539	810.3944	825.0609	827.3138	833.0881	807.7449	767.1477	727.1723	666.6856	621.9411	573.0583	522.0597	460.4241	392.013	338.1268	282.8111	241.5565	197.8309	168.9357	132.9663	110.5172	84.6386	64.3377	46.3362	26.804	16.4907	8.1588	0	0	0	0	0	0	0	0	0	0	0	0
446	1353.0698	1271.1844	1231.4301	1160.1297	1132.8152	1080.763	1020.5703	941.2457	892.6786	836.414	811.6093	775.6651	778.3808	784.2844	800.2847	830.3505	839.0678	842.5835	838.1362	819.6584	787.6118	748.9198	682.4286	627.288	583.8472	541.4745	481.4358	405.9526	348.6234	296.7259	253.6661	210.589	180.9796	148.0972	121.0709	93.0369	73.3819	53.2327	35.5255	20.7388	12.3295	2.8196	0	0	0	0	0	0	0	0	0	0	0
448	1328.1492	1289.1011	1214.3428	1223.4314	1142.2602	1082.2213	1026.5935	964.6086	894.3596	848.874	805.972	798.3164	798.315	796.2113	808.6675	831.2092	847.9654	858.0482	859.4643	829.854	805.4784	756.0474	701.39	647.3197	602.2487	553.8707	494.1701	424.9003	359.4743	311.0242	262.9688	223.6645	191.105	160.6133	129.7195	101.2343	78.7887	62.0333	44.8067	25.0641	14.9321	5.6845	0	0	0	0	0	0	0	0	0	0	0
450	1388.6254	1303.549	1255.5097	1190.9044	1168.3123	1095.0754	1049.2625	963.3694	908.7438	867.8672	826.974	800.6043	790.5236	798.326	815.7771	838.5071	852.4272	861.3503	855.4799	856.5071	819.9868	772.6504	717.7422	662.8186	611.465	560.0603	505.376	438.7497	370.4587	322.3723	272.3908	236.9289	202.1062	171.3925	139.7171	112.7324	88.8708	68.1393	50.8678	34.426	17.5746	8.5946	0	0	0	0	0	0	0	0	0	0	0
452	1421.8533	1340.1822	1218.589	1228.0605	1183.1003	1099.3201	1051.7415	991.3748	919.7138	871.7156	841.7079	819.2274	816.6713	808.6595	818.1456	849.9615	868.7024	869.2221	866.0714	849.7002	811.8733	774.2248	729.6271	665.8767	624.0684	576.6125	522.5936	454.471	381.7535	332.4309	286.2788	249.788	213.361	178.907	146.8245	120.8304	96.4754	76.9759	59.5714	39.1265	20.2663	12.3711	4.3458	0	0	0	0	0	0	0	0	0	0
454	1451.4988	1351.7115	1271.7275	1213.1076	1191.176	1116.468	1058.9492	1006.3235	937.2544	880.8683	838.4995	827.4978	818.5253	803.9305	827.9186	856.3099	867.1063	886.0292	884.382	858.2405	829.6458	793.1486	735.7557	676.6341	632.5192	582.0994	523.5772	466.5835	397.1447	342.6161	300.3682	261.3999	224.78	188.1676	161.1071	134.2859	103.5445	85.5932	67.4352	47.7853	32.4861	17.032	8.7641	0	0	0	0	0	0	0	0	0	0
456	1448.0325	1382.4182	1320.5876	1246.3789	1171.545	1145.3738	1076.0171	1009.5796	946.0043	889.3686	859.19	827.1997	810.07	817.3654	850.3933	850.0585	865.2183	885.0943	889.4508	869.7981	833.2071	803.708	738.7649	690.0676	641.8137	597.7888	537.5035	475.028	410.3411	353.4753	313.6935	273.5964	236.7284	197.1167	167.6817	141.6905	114.7972	94.5394	74.0113	53.5482	36.823	21.8018	13.2752	3.1031	0	0	0	0	0	0	0	0	0
458	1407.1273	1389.5727	1319.2756	1247.6405	1242.3885	1144.683	1106.8516	1029.794	969.8742	903.5566	852.045	839.3313	837.9182	827.4833	845.9671	858.849	871.1751	895.6549	891.1761	877.8545	847.9582	805.3777	741.4053	696.1715	655.1407	608.2764	549.529	482.0152	418.7038	365.0444	325.2046	282.8518	243.8339	205.2123	182.3802	151.8642	123.3272	99.8152	81.3805	62.394	43.9145	26.7018	16.1955	6.2758	0	0	0	0	0	0	0	0	0
460	1446.5582	1402.6159	1301.2949	1265.584	1221.0532	1176.9751	1105.6844	1049.7474	962.1243	919.9624	881.107	854.9663	831.8359	821.9106	836.6929	852.5695	886.9003	896.6367	902.3741	879.718	852.2606	808.3319	753.8148	711.1298	655.1379	615.8954	557.5936	488.7272	430.4559	371.7854	331.4697	288.6367	249.1697	213.4413	189.5679	159.1404	133.3865	108.6462	87.8349	67.9481	50.6302	33.3116	19.1772	9.5182	0	0	0	0	0	0	0	0	0
462	1452.2342	1343.95	1274.2992	1268.9363	1239.1916	1185.843	1110.1181	1037.792	982.5014	917.1782	888.8385	856.2678	836.6781	839.8449	839.7788	861.2845	885.2891	899.2843	900.9381	892.8406	860.7624	818.9545	759.9907	711.3696	667.5466	625.5957	565.2509	506.1204	446.4421	384.2227	338.1674	294.8064	254.7548	222.047	193.22	168.782	142.08	116.9979	94.2444	76.1749	60.3935	41.758	22.2448	13.8547	4.9708	0	0	0	0	0	0	0	0
464	1450.5654	1368.8695	1374.2032	1267.0874	1229.3243	1191.0714	1121.1284	1049.1318	997.6121	948.5771	901.7273	861.8608	844.7896	838.8828	846.0184	866.1602	891.4806	899.793	905.374	886.0634	857.7377	826.0566	767.2862	711.3611	668.0781	627.2013	570.108	509.7599	446.3665	393.9373	344.9311	300.9522	260.4027	230.7997	200.1093	178.8761	150.1407	125.1128	104.1154	81.9029	66.8297	46.4385	31.877	19.315	10.0608	0	0	0	0	0	0	0	0
466	1427.7856	1386.0375	1347.7238	1273.4071	1282.1843	1205.4834	1136.9749	1066.8041	1016.9527	952.7823	898.788	879.5837	844.911	841.7861	850.5327	856.4392	884.9885	901.5021	901.5454	889.1708	857.3246	827.9001	773.2882	715.8419	671.1421	634.0181	576.2015	511.5905	452.9614	408.6163	351.8696	307.2107	269.7188	237.5308	207.1724	187.2989	154.9448	135.1349	112.3663	91.3628	70.8771	55.5368	38.8035	24.9086	15.2748	3.787	0	0	0	0	0	0	0
468	1404.5057	1445.1787	1362.0007	1316.4931	1258.9034	1188.1442	1160.811	1075.859	1031.6358	962.6152	909.8415	879.4716	851.1209	837.0356	842.0617	867.5051	883.9368	902.9022	901.3449	887.2694	865.8315	819.9899	774.7772	720.7558	679.3062	636.5718	585.0889	522.7076	466.3805	416.6897	359.0153	313.6289	279.2712	239.8911	214.4137	193.6529	163.903	141.5404	116.3471	94.4007	81.4557	60.5548	47.5963	30.6406	19.1909	7.6671	0	0	0	0	0	0	0
470	1380.2625	1336.3776	1322.2624	1280.6989	1245.9835	1203.7304	1147.1716	1084.3203	1019.9221	951.7927	906.9718	881.2943	853.8635	835.0913	848.2342	872.6712	871.6933	893.1263	899.583	880.1316	860.9687	823.1909	771.5879	717.8773	681.0769	638.1293	581.596	525.3473	466.1429	416.7383	367.2501	320.1129	284.3932	242.2384	221.7711	198.1819	170.5806	147.2766	125.3692	100.86	82.6444	65.4659	53.1961	38.2226	23.1977	11.6402	0	0	0	0	0	0	0
472	1358.3936	1374.2564	1293.7304	1277.5737	1262.4547	1221.5205	1141.3835	1101.4606	1019.0209	958.141	907.2034	881.7183	856.4105	831.5316	845.2616	862.0757	875.3588	889.1394	897.6639	882.9482	858.101	815.8492	776.6046	726.4089	681.0152	632.8858	591.1199	528.492	472.1309	418.1962	375.673	327.4428	287.9225	250.5202	228.9146	203.246	176.1559	152.7629	130.3373	109.7037	88.066	75.1514	59.3703	45.2102	27.3598	16.5818	5.655	0	0	0	0	0	0
474	1335.3606	1388.8063	1351.0307	1305.569	1275.6258	1192.1479	1161.3309	1089.1365	1038.564	961.9088	902.3507	878.4144	858.4247	838.3938	841.369	855.3635	858.3386	875.812	886.2438	878.5579	855.4866	818.2629	760.5933	717.0431	677.0715	636.7878	592.4343	532.265	477.1779	423.7494	376.7854	328.9216	291.4366	258.9409	234.3956	208.374	183.3836	159.9632	139.7926	115.879	92.0333	79.6274	65.7304	51.2173	35.5627	22.5093	11.4711	0	0	0	0	0	0
476	1309.9299	1369.153	1312.4895	1232.1111	1245.1716	1202.3009	1151.4214	1096.9986	1037.7072	953.1003	912.0938	867.4594	852.1791	838.0835	830.9452	847.679	855.6395	870.0019	877.7291	868.9543	837.0783	804.171	758.086	708.678	683.1759	638.3259	590.445	534.5455	477.4088	427.1992	387.312	339.0456	294.6649	265.4677	239.7208	213.3705	186.1433	165.4612	140.4126	123.1697	101.5614	83.868	70.6466	55.5412	44.6502	28.571	17.4326	4.1935	0	0	0	0	0
478	1282.2303	1347.2822	1339.0188	1276.763	1239.2669	1189.1482	1173.0917	1092.4428	1014.7168	959.1008	903.2412	866.2028	844.7971	824.12	828.6445	838.7107	854.3082	873.3872	874.4228	861.1433	837.4588	796.2873	760.1584	715.6232	669.574	639.763	586.2514	544.0476	482.3085	434.3936	386.0023	341.4081	297.6089	270.688	244.4045	217.5057	190.1923	174.8217	149.8195	131.3829	107.1868	89.2716	74.5082	63.1125	48.638	34.7511	21.6158	8.4878	0	0	0	0	0
480	1253.5459	1324.5286	1276.4252	1280.6149	1272.4142	1202.5774	1142.4426	1091.0734	1029.9022	973.2473	902.4948	881.8041	842.4866	816.3492	814.6298	826.2152	845.3352	849.7125	860.6595	851.9723	832.7866	797.7161	744.4826	713.7427	680.9431	644.1018	590.0683	536.0169	480.6467	433.7465	388.2511	342.1077	307.4996	275.2349	248.6469	221.0893	194.2851	178.5625	152.8668	135.2282	112.1653	93.5859	80.8672	68.5402	56.3187	40.129	25.8934	12.8829	0	0	0	0	0
482	1221.2723	1298.1145	1290.8683	1271.5588	1250.0021	1189.9273	1159.1753	1101.2416	1042.5912	976.4497	901.3129	871.5209	832.4061	816.0314	803.3097	820.2142	845.1162	851.3893	841.8745	845.9071	825.4305	796.4126	744.6921	706.6202	671.0533	633.985	586.3271	537.9057	484.385	431.1197	392.4668	346.5021	314.7955	279.2335	252.3969	223.5337	198.0101	173.9327	158.2466	134.91	115.1655	96.2635	84.4052	72.7986	60.2044	44.026	30.2032	17.2854	4.9736	0	0	0	0
484	1188.217	1270.9957	1327.2406	1259.9616	1254.0265	1183.3712	1134.453	1087.9064	1011.5769	969.4235	899.9055	866.748	842.0549	820.0862	816.4046	824.5498	828.1424	846.9562	839.4883	844.4669	823.6122	775.888	736.5944	695.574	665.6012	628.1632	584.7975	536.8427	483.9708	435.0531	393.2074	353.5875	316.0464	283.2586	255.4725	225.9846	201.771	177.9487	164.6123	143.3271	122.5929	104.3956	87.7215	76.4583	62.0916	51.431	36.3129	21.7114	10.0424	0	0	0	0
486	1154.1518	1242.9255	1291.1257	1263.2244	1219.147	1164.4214	1121.6753	1096.97	1039.3768	946.3556	888.3675	868.9036	833.8174	809.3911	793.952	817.6351	820.1197	820.6801	828.459	822.0621	809.8671	781.954	724.8938	696.5907	665.434	625.2147	582.3365	535.3564	475.7499	436.5556	390.7846	355.6427	324.1036	287.2534	258.1564	229.9602	204.7805	181.9743	169.7872	148.1531	128.7163	110.0448	90.9525	81.0134	70.0785	55.3067	40.5507	26.2132	15.2037	3.2004	0	0	0
488	1119.109	1213.9316	1253.9524	1221.5055	1258.2257	1180.352	1149.1051	1065.2532	1020.2673	964.0865	892.8866	854.6814	836.9426	798.3799	789.1622	791.3701	811.9445	815.204	821.4531	810.2016	791.1711	757.5371	718.2337	684.9302	659.2645	625.0279	584.3744	529.2335	485.308	435.2473	393.9116	356.6896	328.4931	293.8239	260.7956	233.9252	206.2628	186.0082	170.1224	153.1109	133.968	111.8363	94.4111	86.2351	73.0186	58.9989	46.0409	30.7883	17.7408	6.4583	0	0	0
490	1083.3348	1184.2755	1215.9969	1234.7751	1206.0908	1163.0262	1139.0245	1077.2528	1018.1288	950.4444	887.697	851.5425	811.5858	790.4505	783.8853	800.7816	797.9179	818.9491	800.472	798.0202	788.0422	755.45	719.504	674.6798	653.5241	612.732	581.2109	526.018	481.2694	437.0859	391.4188	357.0467	326.084	295.9893	263.4411	236.4073	207.7393	190.0854	171.6955	156.1388	134.1571	117.8689	99.9981	86.7006	77.2426	64.0513	49.3849	36.9324	20.3205	9.7735	0	0	0
492	1047.8545	1148.5475	1178.4169	1200.288	1210.7049	1148.9717	1140.5622	1053.2551	1011.9313	952.1897	879.0729	846.6058	812.4667	787.7996	775.2523	789.0756	788.5728	795.4826	802.5657	784.3485	768.4987	742.4986	708.9053	674.1232	646.2991	615.2193	575.6844	523.8282	483.9596	435.7545	397.6438	359.268	327.302	300.8904	266.347	238.3585	212.2071	194.3902	174.2683	158.9443	138.6632	123.0497	103.9229	92.5426	78.8427	66.507	54.9183	40.1435	22.9646	13.936	4.7418	0	0
494	1011.5603	1105.3977	1139.9659	1197.8066	1197.6256	1149.7968	1136.0817	1062.9883	992.7839	934.1728	896.0973	848.3435	806.8272	777.9815	772.7119	774.3569	779.1634	785.9929	782.7813	782.3017	763.0987	735.366	699.7436	657.7952	638.2971	606.1966	567.6616	524.1907	475.0412	436.3359	395.941	358.3124	329.2554	305.2483	273.3344	240.3032	216.7228	196.3972	176.8588	161.3571	142.5554	124.6158	109.6085	93.4439	81.9265	70.3147	57.7421	43.5212	32.2706	18.9624	9.5757	0	0
496	974.1552	1060.9923	1154.7424	1175.4842	1196.0545	1147.2367	1132.3827	1068.3119	1004.0239	935.5588	886.0208	831.535	790.0368	763.3971	763.6154	766.6629	765.5069	771.588	774.6235	775.5294	746.0059	724.0528	688.062	658.4447	626.2891	603.1368	568.4434	522.2229	475.2931	430.3399	394.2862	356.1239	330.387	302.0735	270.0179	242.1677	220.0401	197.1631	179.4125	162.3231	147.1184	125.9851	115.6545	100.0632	85.7503	75.4157	60.3907	48.8421	35.0281	24.0759	14.4975	3.2622	0
498	935.6886	1096.4787	1118.646	1152.2226	1177.1527	1147.8985	1103.2675	1032.7035	998.8522	923.414	870.343	820.1576	801.2144	771.9299	740.52	744.8621	752.998	753.8568	759.8428	748.8134	741.4579	721.4888	677.4902	644.6959	618.2795	595.5572	558.2417	520.341	469.7534	429.4285	391.8046	359.8523	331.6389	301.9987	274.9412	243.9523	220.935	197.8506	181.9287	163.1356	146.8055	131.5634	116.6473	103.4627	87.758	76.8271	65.418	52.8634	39.6552	29.2721	17.4275	6.5825	0
500	994.816	1055.3072	1081.8122	1128.3999	1170.811	1120.6878	1092.6054	1023.9016	984.9663	908.382	859.0269	814.1525	783.9818	750.5338	738.7372	728.5251	736.6004	741.5323	742.1308	736.0818	722.6974	700.1653	666.97	636.6461	606.1414	581.4727	551.4002	502.1546	465.9531	424.7093	390.6474	351.073	328.8393	303.3872	272.7643	249.3758	221.8116	200.5231	183.3382	163.9373	150.0353	135.2335	117.8001	105.8883	89.1105	78.5777	69.0473	55.7119	42.3141	32.8105	20.407	9.9608	0
502	955.6546	1013.0419	1048.8835	1103.6793	1147.844	1122.9775	1078.1955	1021.5345	970.8973	899.9212	855.7408	810.3633	762.2946	731.3317	722.5332	728.8339	717.8644	724.423	728.5901	715.2685	699.6292	681.8644	653.2589	619.7027	603.0792	576.0943	551.319	496.2492	461.8662	422.1176	382.4905	352.8677	324.1711	297.8547	276.5132	248.9363	222.6034	203.1509	182.4238	164.6791	148.1682	137.4285	122.1447	110.1966	90.278	80.5621	70.1437	59.3839	46.4542	36.9191	23.4288	13.6766	5.5705
504	1024.272	970.0289	1020.3078	1078.4235	1099.7063	1106.2112	1078.3506	1018.1716	956.481	874.4188	859.7428	799.0099	764.8746	724.5695	704.3769	711.0502	706.3098	708.7819	712.4223	700.9681	694.4751	667.6327	636.7503	614.1837	590.0097	567.807	534.5932	492.3139	448.3026	415.1478	386.4745	345.7234	321.8666	293.3768	274.7445	249.5307	223.3776	203.5118	181.4689	165.4105	149.2795	137.9251	125.4953	111.8664	95.3192	79.8718	71.5088	60.3584	51.6434	39.6036	28.4808	17.7393	11.235
506	954.1643	927.3878	992.3551	1046.316	1067.8453	1054.0598	1050.6935	1013.7795	942.9654	881.0498	833.1058	780.2137	751.2108	718.7086	697.8884	690.1747	691.3374	698.5405	694.8644	684.4431	663.842	654.3538	621.1915	604.8547	573.4358	562.2014	524.2556	475.4723	441.352	408.1856	372.3464	349.7567	319.9406	299.6178	270.1699	253.0085	224.3981	202.9393	182.5328	166.3266	149.4874	137.8899	124.8266	115.0621	102.5415	83.1104	74.8506	64.976	52.4123	43.7369	33.386	21.8934	17.0135
508	834.8541	884.9338	978.9401	1006.6766	1036.487	1041.7116	1020.7468	963.2149	930.3804	880.0807	823.3393	779.3211	744.4797	693.1393	682.0885	679.9659	674.5954	679.2096	680.8293	679.4955	657.6173	640.1762	612.6809	589.5953	563.3295	546.9235	510.9439	477.6586	438.0056	402.891	369.6009	337.8773	321.1696	294.8739	271.4508	248.8581	222.879	202.5566	183.7988	166.1015	149.847	139.8593	126.9601	116.0206	106.3411	87.3812	75.2142	68.1939	57.1888	46.651	37.4567	26.153	22.9261
510	818.8202	892.4283	933.7478	966.0726	1004.2969	1020.7518	1015.0258	958.3855	920.6133	858.4376	799.6879	761.0552	712.0177	692.4833	679.0551	675.4611	660.4493	654.9721	665.5936	654.937	649.5572	627.9933	600.3744	572.1383	551.6069	532.7743	496.4973	473.5992	431.0512	401.4679	369.7657	338.2757	313.6427	286.1751	272.2178	246.7819	223.5437	202.1215	184.3778	165.1668	150.1816	137.6761	129.976	118.7678	106.4935	91.3462	75.9834	67.5523	58.5226	50.6226	42.2173	31.7451	28.9595
512	802.1862	850.9623	887.4189	926.7401	971.1536	1002.1097	986.0218	936.8976	907.4509	837.8013	793.4264	751.1724	706.906	669.8446	659.9913	654.7674	646.006	645.6458	643.0262	651.2933	636.8238	609.3065	583.1024	562.487	536.5303	527.3471	491.6464	458.9518	420.8707	389.5649	363.0974	328.923	312.3463	288.7405	266.8624	244.425	219.8268	201.6078	183.5451	164.1572	150.4718	137.2116	129.9381	119.0763	109.3137	93.9127	76.3236	66.3151	59.1674	51.1266	41.8872	35.1897	35.1094
514	785.064	866.7625	840.0891	888.8735	937.1989	989.8888	969.7081	940.3243	892.0934	817.3578	775.5133	722.9965	683.7914	659.0758	642.4274	634.3019	626.4382	626.9013	625.7459	630.4575	611.5397	602.1474	573.1857	546.3672	529.7638	511.7483	480.9376	453.0071	409.6996	387.6414	357.817	325.6883	300.15	285.1094	268.2135	241.0199	221.7045	197.6597	182.658	164.5503	150.0397	136.7096	131.0073	119.8518	108.2951	94.7437	80.023	65.5776	61.127	55.5009	46.4413	36.6175	36.534
516	768.0544	893.8584	792.3851	850.8137	943.297	957.695	952.5159	897.3401	862.6575	813.8543	772.0366	710.1788	674.9735	630.5162	620.7225	632.1409	614.2706	616.6446	611.7652	613.0793	602.1824	587.53	558.2322	535.9219	523.1158	500.6851	474.5067	442.0556	407.9881	377.7576	350.5572	322.6038	301.0021	281.6061	259.2549	239.7279	217.6243	202.9248	181.8561	165.0449	148.2741	136.2746	125.4347	118.306	107.153	97.3792	82.6358	65.6712	60.5786	53.9016	48.3602	39.292	39.2024
518	751.0984	749.5461	744.18	878.353	909.2852	925.3667	940.4002	887.8831	849.4073	788.4596	748.9589	705.0832	675.7472	636.3492	618.409	613.1968	603.2626	602.4998	591.0142	591.8903	585.4831	567.7773	543.8656	523.9021	509.5725	497.1061	466.7103	437.1315	397.2551	369.8347	346.8315	313.5963	296.1314	275.9226	258.525	236.3244	217.3847	199.635	181.1329	164.1996	146.5483	135.9022	126.276	118.5685	110.3488	99.1587	86.1729	64.7528	60.7449	57.2697	49.2123	42.6199	42.5228
520	733.5781	584.1656	796.2294	839.4383	874.3297	892.1223	889.2761	869.6999	841.2987	775.7892	744.1805	693.8987	660.6622	620.9005	604.1743	592.1648	594.7307	588.8009	581.8852	580.2026	573.146	547.5546	533.2824	511.2605	491.5464	482.8457	450.8504	420.5003	388.8702	365.6876	333.0154	309.546	292.4312	269.7323	250.3326	231.2658	221.3361	201.5828	180.347	162.5658	146.2482	135.4866	125.4632	118.1968	111.1947	99.703	89.9652	67.5524	55.5724	59.2733	50.6782	45.0406	44.9381
522	715.449	585.0476	761.8523	799.4693	837.3398	857.909	890.4139	865.6337	812.1198	759.964	723.6447	686.112	637.0986	610.578	592.1595	581.1987	562.4253	563.4915	570.8603	560.2297	544.7977	537.1546	514.3293	495.3075	485.8967	463.7942	448.4183	411.6492	380.5526	356.1106	332.6394	303.2674	283.2877	261.7974	251.1131	229.6586	208.8902	198.4404	177.6464	160.8445	145.8954	134.1617	124.5928	118.4841	110.5225	98.0876	90.3536	74.3686	52.9744	55.9108	49.7827	42.3103	42.2139
524	696.7623	585.8058	751.6338	758.5122	798.3561	822.7959	841.6111	825.1162	812.2976	735.356	710.838	664.6918	628.5883	586.2493	572.454	567.2534	552.2062	553.481	550.5041	543.6772	534.4722	520.8542	506.2504	482.1481	467.9951	452.3908	430.2631	407.153	375.9618	351.6512	318.464	295.4801	278.091	258.2177	242.6485	223.4512	214.8198	194.7325	179.0941	159.0463	145.0651	132.342	123.673	116.5039	110.3442	99.2061	91.2225	77.9505	54.8714	53.276	53.8586	45.9533	45.8484
526	677.9842	586.8411	726.8152	717.0654	758.9371	786.1614	813.4189	816.9767	771.9304	732.9301	677.0286	640.016	614.9532	584.1767	559.7743	544.7699	543.1924	544.4334	534.096	529.3023	523.3963	505.8577	487.1581	467.1498	462.1307	446.4691	426.1155	399.5059	365.0186	337.522	314.0347	290.1807	272.6049	255.7115	243.2408	227.0814	205.2634	193.3798	175.8792	157.2776	143.401	130.5394	122.7868	115.2543	110.6744	102.2626	91.7428	79.3141	58.3252	48.8843	53.2024	46.9418	46.8347
528	659.0608	588.1419	749.7145	675.0312	735.6282	766.1463	784.9415	786.0214	770.107	697.4803	671.2049	626.3789	606.9247	574.158	547.8387	540.79	532.2633	531.7692	513.2791	520.6829	508.6409	497.8665	476.7018	455.0349	443.065	431.2816	416.65	391.9661	352.8272	336.4357	308.723	284.9017	273.6332	250.5778	234.0236	222.1054	203.6749	187.2745	172.7234	157.8424	141.7559	129.7883	121.5639	114.022	107.6688	97.8057	88.7316	79.6296	61.6371	45.7422	50.7199	45.2377	45.1346
530	639.511	589.3032	640.8799	667.2032	712.1294	745.4493	755.5967	789.362	747.9222	701.9574	668.303	611.2279	585.566	548.7059	529.7451	530.5834	516.6642	517.9772	507.6191	499.0383	490.0635	484.4065	466.17	444.6572	433.6071	424.6856	407.8649	380.1761	346.3169	317.6185	302.3095	280.9516	262.7066	245.3095	229.7322	216.5798	199.9543	186.8893	169.6136	155.3302	140.0306	128.9819	119.537	112.7275	105.6196	98.6926	90.2569	78.8471	66.8026	43.0499	45.4353	49.3654	49.253
532	619.4308	590.4143	487.0423	697.2732	688.0052	718.5592	725.4995	753.2131	744.6949	680.5182	650.2121	627.9421	574.2471	541.9143	511.3402	513.5976	496.1899	503.9272	501.1206	492.8767	484.6228	468.1612	457.7653	430.7331	423.6512	413.0397	396.2194	369.9788	341.5287	315.6368	302.4772	272.0355	261.9164	240.6103	225.1245	211.0333	194.546	185.2623	169.4905	155.6843	138.2455	127.3947	117.446	111.3873	105.0714	99.1063	90.538	76.7308	66.3329	44.6131	37.091	46.1398	46.0348
534	598.7198	591.3842	512.9281	676.4622	663.1445	685.189	694.5316	744.7053	701.8325	661.4509	622.0583	590.9149	557.7695	529.2955	506.4053	490.9515	489.0771	483.5659	472.4187	471.9583	469.5304	458.1579	429.7283	421.3189	409.3215	407.3512	390.337	355.1106	336.0461	308.8356	291.1846	267.7776	251.0992	235.1541	219.005	207.3598	194.6957	178.8229	167.5623	153.733	136.3793	125.3575	116.1422	109.984	103.1164	97.2271	88.7972	79.7888	69.208	52.2424	33.4936	44.4809	44.3796
536	577.6801	592.5206	539.598	666.7716	637.8822	651.2472	685.1721	710.1812	692.2979	646.0207	616.7431	577.0065	546.9869	517.6416	496.7379	486.3296	475.1577	473.9214	466.3535	465.9	450.0159	438.4532	429.1463	410.5091	404.996	391.4691	374.1981	351.7253	330.1372	303.5887	287.1938	257.8178	246.3432	231.3918	213.335	203.3685	189.405	175.9886	167.5353	148.0634	136.7673	123.3015	114.8349	108.3313	101.1394	92.4956	89.7682	78.2591	70.2299	56.0469	31.554	38.3626	38.2753
538	556.2694	520.0584	567.0867	627.4344	612.1685	640.5662	656.3111	675.0239	677.761	629.5599	613.6352	559.5867	539.6058	496.2255	493.7461	474.6311	470.0315	458.1798	455.5491	444.0409	443.8718	425.8616	417.6294	402.0108	391.4419	386.9666	365.6311	345.4553	316.6359	295.8126	274.873	259.0979	242.7911	228.09	209.2278	198.3037	185.2461	172.55	162.2593	147.3956	136.6818	121.2212	113.3987	106.5386	99.1354	91.2855	87.8255	78.6712	69.4022	60.1806	35.8119	31.2257	31.1547
540	534.1752	549.3171	595.1276	632.2556	599.3575	608.4266	626.5701	638.8464	669.8355	614.0891	567.4453	556.0421	521.4068	481.2892	469.9012	463.9211	453.5191	448.5143	433.861	433.9334	424.7798	421.1233	401.0872	388.7273	382.1601	371.6263	355.3531	331.4358	309.4636	287.9129	269.098	244.7362	237.1918	220.3576	208.187	195.7108	180.3156	173.5185	156.9642	144.316	133.6572	119.0516	111.646	104.6681	97.0509	89.5544	85.3893	77.4028	68.9735	59.8705	41.9309	24.6825	24.6264
542	512.6075	519.3848	512.8117	505.7921	594.3288	576.7258	593.4186	603.0794	636.2354	606.2457	571.9664	542.8248	507.7611	475.702	466.5267	449.2075	441.4447	427.982	428.4005	422.4011	419.2616	408.6319	398.6455	380.7284	375.847	359.4565	344.5744	325.636	303.5355	281.0669	265.5003	242.0376	231.3718	217.5002	202.6367	191.575	178.3611	166.3347	157.6429	142.238	130.1643	117.1336	110.0727	102.8662	95.0872	87.9585	86.1106	75.9503	67.2544	60.684	49.6737	21.8705	21.8207
544	664.1919	545.4714	431.1334	333.768	622.6564	543.9157	555.1191	566.0891	636.6727	602.659	558.0579	517.2024	474.8176	470.3408	451.9283	443.4952	429.2277	426.3603	421.3669	417.8394	404.3131	399.9396	385.32	362.4717	359.8257	353.7599	339.7294	319.007	296.6065	276.1032	260.6582	238.9006	222.1725	208.4995	200.7672	187.6411	175.3736	164.3906	150.3479	139.0859	129.43	120.5932	108.4077	100.969	92.9866	86.2795	80.1628	75.6925	68.5688	61.9004	49.253	25.7035	25.645
546	630.6061	527.8852	427.5534	383.2163	548.3156	509.7196	515.29	575.2039	606.2322	575.78	543.1103	517.8703	483.3683	461.1067	429.6474	413.9951	415.8978	417.8074	410.282	403.7272	389.1001	386.6208	371.3244	361.0231	353.51	351.4275	330.1829	311.1646	293.0281	266.4358	249.1665	234.6484	222.2268	210.8069	193.8416	184.4695	171.3025	158.9339	147.5146	140.819	127.5471	112.9237	106.5927	98.8819	90.7384	84.471	78.7578	76.7969	68.7322	61.8578	53.6545	32.3626	32.2888
548	621.2211	539.0949	437.061	433.7685	587.0862	474.2134	533.8581	553.0189	574.4776	573.3159	529.1631	498.7386	468.7617	444.8339	420.9858	419.042	407.6999	396.7992	401.5553	389.4396	387.0517	372.9769	356.649	351.3317	343.9948	334.3234	322.7949	305.1693	275.1084	263.1588	238.411	224.4512	215.592	205.7952	187.4001	175.0956	166.1197	157.3561	144.2595	132.6071	125.6411	113.0394	104.6331	96.6295	88.9074	82.5381	77.0391	76.1711	66.6847	63.4163	53.6873	40.1494	40.0579
550	655.0293	550.4214	469.7807	485.6217	556.3035	504.2287	509.9466	530.1084	541.7737	548.7628	511.8079	476.24	460.062	430.9197	410.587	400.9392	387.5024	392.8363	382.2217	375.8442	369.6526	361.6918	343.7379	337.3424	330.5371	326.2244	306.1105	293.8944	279.6323	253.1529	233.612	222.7444	212.2204	196.5322	185.7658	173.2815	160.0403	151.737	143.31	130.6959	123.0678	114.0645	101.0197	94.2878	87.0004	80.5603	75.2512	70.0367	67.1762	59.481	51.7465	44.9546	44.8522
552	544.1043	563.466	528.2093	540.322	549.3651	494.0092	486.6771	503.087	509.5727	522.1508	501.0255	473.6551	455.6937	415.7983	389.8776	385.9056	382.6985	385.975	370.1156	372.956	352.1154	350.5194	340.3453	331.5833	325.1392	317.9187	302.2235	283.0393	266.5187	248.9435	232.8225	211.8496	204.8856	190.7886	176.7407	164.3568	158.6105	147.8038	138.2664	126.0151	120.2999	112.7045	100.4458	92.1153	85.2724	78.7436	73.6005	67.8703	63.1528	61.759	51.6378	45.838	45.7336
554	635.4115	576.6549	522.7386	475.7779	434.7171	502.2814	462.4934	470.1462	476.2003	521.3693	480.6615	459.2179	443.0544	409.5883	391.2647	383.2013	374.241	370.2589	364.6268	356.4676	349.7515	340.1108	329.7362	319.157	314.9501	302.4731	295.9935	282.915	262.2588	239.7212	229.5027	209.0166	201.524	183.0578	175.0932	166.7397	154.3229	141.0007	136.6282	126.7632	117.8626	109.244	100.1506	89.8332	83.4839	76.8345	71.8649	66.0083	64.6105	58.138	53.0558	49.659	49.5459
556	624.1803	568.2343	431.5417	315.5081	216.4373	508.0881	437.5606	436.2159	471.925	497.0753	472.7627	442.1077	418.1597	396.4937	382.3451	370.8395	367.1291	352.7011	350.2034	347.889	338.0758	332.5553	319.1368	310.7861	303.963	299.3226	280.7927	271.1265	255.0102	234.0468	218.2607	206.7809	194.9866	181.9259	168.8142	162.8544	150.8426	138.4217	136.2852	123.5415	112.1248	105.1811	97.9108	92.886	81.6337	75.1598	70.0895	64.0838	64.8374	59.9651	51.3665	47.1322	47.0249
558	689.6468	584.2293	436.7622	311.7306	262.1533	512.7966	411.8467	428.4191	453.8738	472.0123	463.5389	428.0502	416.5937	384.2322	371.0195	360.3867	341.7777	346.3764	329.041	335.2893	332.4641	317.7364	304.3812	297.8389	299.6742	289.593	279.5808	262.6557	239.8962	225.6261	211.5979	195.9003	183.6598	174.9276	168.1247	156.6283	145.2018	140.1563	129.1495	119.3142	110.2889	103.6733	95.5855	89.8072	79.7184	73.4259	68.2919	62.0935	56.7113	57.7723	49.7579	46.1968	46.0915
560	665.4079	615.8522	425.7525	300.2854	309.2737	462.7988	399.9129	409.5785	435.0691	445.9881	440.2694	419.1765	397.6066	376.3183	356.8509	350.9311	338.084	335.36	328.2935	325.3299	313.1954	308.6544	294.231	289.963	286.0528	284.2283	269.2096	255.8292	235.0879	220.3216	206.5076	190.7368	184.0816	169.4526	159.6707	150.8298	142.4034	134.1864	127.0413	115.4911	108.0274	101.7486	95.8884	87.7985	77.7068	71.6438	66.407	60.0128	53.1034	57.9959	50.9039	47.9744	47.8651
562	622.7623	532.0174	414.2003	320.2504	357.7931	491.1086	416.9576	389.9793	412.1085	418.9879	434.5538	411.3915	389.3213	357.716	343.2071	338.9305	326.4448	321.7557	314.3498	312.084	302.4729	297.7269	285.1848	278.731	274.8884	266.3551	261.6153	241.9831	227.4084	215.692	202.7028	184.0622	181.1634	167.3155	156.2768	148.2531	137.5836	129.4277	120.7969	113.8368	105.3786	95.8343	93.6585	85.6427	75.5953	69.7919	64.344	57.8391	51.9651	54.3482	50.4375	45.4969	45.3932
564	584.803	544.6408	402.1275	373.154	407.7348	434.4083	429.0217	369.6446	384.8801	391.0379	432.5047	388.9159	368.9744	335.676	333.0177	326.6316	315.9835	313.3802	305.497	298.1532	294.2978	293.7376	276.0067	271.2741	264.8418	261.997	251.7852	236.5093	217.6795	205.5827	192.7045	183.8378	170.6999	161.4001	150.3351	142.2679	134.608	125.0376	116.7488	109.0029	104.3873	95.534	89.902	86.1589	77.3747	67.8543	62.1915	56.274	50.7701	51.8763	48.9532	46.4913	46.3853
566	514.8462	593.3855	389.7741	382.1475	374.745	365.7443	425.3039	348.791	356.9469	395.2562	410.161	390.0534	355.0119	327.5999	325.2118	316.5448	299.2035	305.9747	297.239	291.6278	287.4242	281.0446	269.7331	265.6015	259.6307	252.548	240.9723	232.566	213.7896	203.1288	187.3254	173.0714	166.4568	154.0022	146.4761	138.4099	129.1115	120.3563	113.5351	104.8752	96.9395	95.5461	86.7325	81.8919	75.7944	65.8711	60.3386	55.0267	49.5485	44.483	46.563	43.2461	43.1476
568	533.3712	561.2684	462.6038	356.3113	265.3562	186.1157	411.6187	327.372	367.2294	372.3333	387.2192	370.1886	357.3993	332.6821	309.0011	304.4811	290.1598	297.1979	289.0615	283.3721	275.0263	271.0574	265.1394	252.1842	249.8688	247.1968	233.5053	222.134	204.3995	190.3752	178.3093	173.2674	160.6902	155.2278	141.8662	136.9584	129.5285	121.5378	113.5034	103.6364	96.0647	88.9259	84.7428	78.7124	73.8435	63.837	59.1541	53.7492	48.2967	43.4889	46.2725	42.6103	42.5132
570	493.1287	584.1633	472.7761	363.1121	269.2976	227.5205	406.0593	343.555	344.0798	348.5529	363.4121	366.167	332.7628	319.2241	301.922	297.5185	278.3223	280.4909	280.3213	270.007	266.5157	259.5041	248.2295	239.9289	237.4793	238.1397	223.5348	218.7861	199.3911	188.2942	178.1356	169.1332	159.1244	143.7678	139.2361	128.3128	120.6195	116.0083	108.7954	97.574	94.8494	88.9299	83.384	79.2674	73.9451	65.5663	57.905	52.512	47.1641	42.4436	45.4928	41.5559	41.4613
572	485.7219	528.2525	446.6767	367.7795	272.4553	270.7594	405.6017	369.6285	320.7836	325.1432	339.4714	355.0198	329.5718	300.6001	292.4984	282.2099	286.3127	268.0621	266.4456	261.418	260.3446	253.8336	249.3265	240.3633	235.0652	227.4923	215.3011	207.2083	196.3157	189.8588	169.1095	158.6723	150.1374	140.6217	133.9238	126.3378	117.8116	112.3669	107.156	100.5489	90.4141	86.551	80.5067	79.1877	72.5494	63.3718	56.7122	51.3226	46.4411	41.4352	39.613	40.6232	40.5307
574	429.4239	486.5727	488.3155	372.3928	298.0064	315.4317	403.1241	346.5058	296.5301	301.3068	314.5419	353.8411	321.4062	302.8869	293.6894	272.2183	269.1791	261.913	258.9428	261.0451	249.493	235.5622	238.99	229.1779	225.027	223.4533	212.642	199.8495	190.6439	176.1398	164.4423	155.1035	148.4809	139.165	130.9123	123.1024	114.0465	109.7191	102.905	96.2325	88.6611	84.9467	77.9582	75.8645	69.1164	61.5172	55.4454	50.4376	45.6664	40.3682	34.9217	39.877	39.7862
576	468.2131	451.7118	437.5856	376.9464	347.1605	361.5425	380.1378	365.7029	271.3189	276.5227	334.0001	336.9393	313.8674	289.5139	268.9195	261.0893	266.842	256.0867	255.086	247.0493	239.2349	231.8071	227.0143	224.35	220.1989	213.5063	201.8261	197.0502	183.6787	171.3695	160.9501	150.6371	144.0663	133.3893	128.0563	115.5776	114.5594	102.0071	101.2114	92.0613	86.4504	82.0528	75.7751	69.4656	66.9675	63.9812	54.1041	49.6842	44.6331	39.242	33.9777	39.0684	38.9794
578	430.0813	440.1128	492.281	381.4403	354.3197	328.6503	311.7639	346.5599	245.1554	315.4494	311.848	319.3043	293.5801	287.3034	268.2911	255.7038	249.2932	246.4418	237.9874	239.2053	234.1975	224.5312	220.3284	217.4684	207.9455	207.0462	202.2259	184.491	177.4808	170.6697	159.3976	144.71	136.1333	125.6181	119.2523	114.6003	109.8491	103.1906	99.259	92.9069	85.6169	78.7782	75.115	70.6475	65.0749	63.218	55.4642	48.8782	43.5407	38.1207	32.9835	35.9671	35.8851
580	474.5557	393.0581	417.7703	394.5269	309.9278	235.7504	175.1956	351.6244	303.5853	293.6942	288.8367	300.9431	300.8704	274.2032	265.5446	251.6623	245.2423	242.8467	234.1854	227.9529	224.2992	221.2859	211.8904	211.7456	208.3818	203.7032	193.4748	186.9043	171.8497	157.2413	150.8551	143.1126	133.5073	127.8971	120.7325	111.6306	103.5863	99.809	91.9222	85.9762	82.4669	73.8028	70.9153	68.2409	63.5929	57.5771	54.7382	48.0203	42.4225	36.9756	31.9396	32.5751	32.5008
582	410.3523	382.7179	351.1423	388.5993	306.5471	234.5517	208.5447	353.3178	296.0324	271.1977	267.88	281.9403	290.9488	263.3187	249.5422	248.5987	242.1617	240.6648	232.495	218.7016	218.6702	210.9167	205.5985	203.4952	194.3918	191.6233	192.247	177.0557	167.1919	157.656	145.2745	133.7818	128.2584	122.9513	111.2404	105.6915	103.4059	97.9789	92.2328	85.8909	77.6669	72.8374	70.6783	64.2642	62.4115	57.6808	52.6193	47.1243	41.325	35.7855	30.8551	25.9561	25.8969
584	421.604	327.5717	348.2949	375.4299	308.9068	235.9572	242.9226	357.9692	303.5008	247.8666	249.0104	262.2018	285.7668	255.4472	243.7016	234.8018	228.5479	218.2645	217.7985	213.4633	211.1227	207.3836	200.5772	193.0515	194.6813	188.1902	185.195	174.3555	162.4314	151.4466	144.0482	130.6643	124.7561	119.6605	112.0937	105.9917	98.1239	92.5191	87.4323	82.3191	74.9377	71.6242	67.3854	62.3215	63.5842	56.0656	51.3252	45.7218	40.1712	34.7276	29.7201	22.9922	20.6732
586	323.1904	309.349	349.3027	369.419	311.1372	255.1494	278.2902	371.7481	292.6359	223.6682	229.4024	266.3952	270.6541	247.0928	239.1064	226.5134	217.5032	218.4133	212.6547	208.0495	196.3521	196.8864	189.4505	186.5452	187.7172	183.1023	176.8919	167.734	157.0226	143.0138	134.3833	127.7889	119.718	115.5685	106.6491	102.0796	98.0791	91.2147	83.5574	78.171	73.8199	69.9991	64.153	62.4298	56.5869	54.5577	51.4709	47.4124	38.9548	33.6137	28.972	19.9205	14.3755
588	262.5113	321.8933	309.095	372.0925	313.2396	292.9939	314.6379	343.7301	288.0204	198.6192	242.5073	249.4164	254.9198	237.9227	225.4038	217.2555	217.7565	209.5881	210.7021	205.5527	201.6815	194.3969	190.6188	183.1386	175.0109	178.6852	170.5168	158.5868	152.9785	139.0631	132.1146	119.8422	114.5144	113.5547	103.363	99.2048	94.1956	87.8778	84.1943	78.5968	72.5602	67.4825	61.9033	63.7074	59.492	53.1195	49.5722	45.4426	37.6768	32.6691	28.4071	16.7425	3.8201
590	383.4151	300.9199	324.5243	332.3391	315.2648	298.6114	289.0693	288.6763	296.413	220.1536	225.7728	231.8317	238.6122	226.2689	210.9742	208.763	201.023	207.7097	201.9333	198.9153	191.3501	189.1938	181.3187	174.4088	171.1164	167.7289	166.272	152.5799	147.1019	135.8685	127.174	121.0918	114.05	107.4646	99.3492	93.9447	91.3049	88.7778	79.052	71.585	69.3769	64.712	63.326	58.8092	54.6598	51.7181	48.6108	43.6126	36.3436	32.1372	26.5562	13.4621	0
592	400.7217	317.7938	336.8245	344.0315	316.6964	256.038	207.5371	169.0014	279.4852	239.8403	209.2161	215.2898	222.5374	225.3665	221.5663	209.9232	201.1502	198.3119	192.125	186.4751	183.2378	185.5002	174.2698	170.416	169.1458	167.4002	158.3842	146.5942	139.6414	130.9567	120.4811	116.7634	111.1735	101.772	100.8401	90.2941	83.2733	84.3209	75.339	71.4965	67.841	64.1358	58.2912	58.3721	53.5163	49.9564	46.5626	44.2176	36.7987	31.6897	23.4488	12.967	0
594	340.2588	352.9332	310.4622	331.8594	355.2365	279.48	208.6603	198.4194	312.9686	223.9729	191.933	198.9054	205.7442	219.5076	205.5243	206.4537	194.1848	192.2183	190.4018	185.428	177.2951	176.5029	169.8937	163.3415	160.8351	157.8834	153.6479	145.5243	136.8594	126.4155	121.3593	110.9653	108.85	98.6739	95.1977	89.7442	85.4035	76.9606	73.4152	70.8702	65.6289	61.6008	58.5643	54.2547	51.66	50.3971	47.184	42.3231	38.1259	31.2052	21.5455	0	0
596	319.0792	331.0075	265.3486	329.1256	357.3554	259.7366	238.9889	228.9134	306.1552	229.8021	174.0005	181.9007	201.6638	210.1059	196.7439	198.3329	188.8527	185.7227	180.7242	174.768	173.3491	173.7643	165.2402	162.5032	154.9818	160.5254	149.9572	137.9438	132.6482	124.8914	113.645	109.8005	104.4054	97.9769	90.5708	88.9771	80.1917	77.3341	71.5151	67.8445	63.4737	60.1904	57.2688	53.1482	51.7169	48.823	43.9985	41.06	36.8067	30.6966	22.765	0	0
598	247.3098	300.5963	243.5294	310.3546	324.9119	292.0259	271.5149	260.5233	313.0217	198.9615	155.3929	179.6776	191.8049	200.3196	189.4763	190.9702	184.3675	184.3408	177.8208	171.903	173.2531	164.7341	152.852	156.5173	152.6441	151.2907	143.9782	138.2209	130.2988	120.7569	109.4126	104.0113	101.3126	96.1646	90.6999	81.9285	77.608	75.1852	70.9444	65.8153	61.5543	59.1839	54.7493	53.4873	49.3888	45.9375	46.2935	39.4495	37.0307	31.6082	0	0	0
600	396.653	205.4374	279.5501	289.3308	359.9383	327.713	305.1046	293.1676	292.757	218.55	154.9309	169.4844	181.469	190.0532	198.4959	181.7811	175.782	178.3264	171.1474	166.4553	163.7305	158.5518	153.0737	152.8553	150.2158	147.8436	143.8013	136.837	122.9784	118.3824	112.922	99.5185	95.4573	93.3866	86.7133	79.6951	78.0976	69.6798	68.4679	64.9539	62.12	59.6444	54.9829	50.5354	48.4498	45.949	42.1345	41.5572	36.7328	33.2842	0	0	0
