Description	SOS-31 (clean blank)																																																				
EEM type	"Dilution- & Scatter-corrected, Calibrated Data (ppb QSE)"																																																				
Scan date	1/19/2012 15:44																																																				
Excitation	240-500nm by 5nm																																																				
Emission	290-600nm by 2nm																																																				
Calibration	Michael_Fluoromax4_April08 (07-Apr-2008)																																																				
Slit settings	"5nm Excitation, 5nm Emission"																																																				
Dilution	25																																																				
Row 1	Excitation(nm)																																																				
Col 1	Emission(nm)																																																				
Data	Fluorescence(ppb QSE)																																																				
																																																					
	240	245	250	255	260	265	270	275	280	285	290	295	300	305	310	315	320	325	330	335	340	345	350	355	360	365	370	375	380	385	390	395	400	405	410	415	420	425	430	435	440	445	450	455	460	465	470	475	480	485	490	495	500
290	0	0	0	0	0	0	0	0	0	0	0	0	0	0	0	0	0	0	0	0	0	0	0	0	0	0	0	0	0	0	0	0	0	0	0	0	0	0	0	0	0	0	0	0	0	0	0	0	0	0	0	0	0
292	0	0	0	0	0	0	0	2.5003	0	0	0	0	0	0	0	0	0	0	0	0	0	0	0	0	0	0	0	0	0	0	0	0	0	0	0	0	0	0	0	0	0	0	0	0	0	0	0	0	0	0	0	0	0
294	0	0	0	0	0	0	0	4.9465	0	0	0	0	0	0	0	0	0	0	0	0	0	0	0	0	0	0	0	0	0	0	0	0	0	0	0	0	0	0	0	0	0	0	0	0	0	0	0	0	0	0	0	0	0
296	0	0	0	0	0	0	7.5196	7.3287	0	0	0	0	0	0	0	0	0	0	0	0	0	0	0	0	0	0	0	0	0	0	0	0	0	0	0	0	0	0	0	0	0	0	0	0	0	0	0	0	0	0	0	0	0
298	0	0	0	0	0	0	14.836	9.6369	3.5075	0	0	0	0	0	0	0	0	0	0	0	0	0	0	0	0	0	0	0	0	0	0	0	0	0	0	0	0	0	0	0	0	0	0	0	0	0	0	0	0	0	0	0	0
300	0	0	0	0	0	7.741	19.5074	11.8778	6.9173	0	0	0	0	0	0	0	0	0	0	0	0	0	0	0	0	0	0	0	0	0	0	0	0	0	0	0	0	0	0	0	0	0	0	0	0	0	0	0	0	0	0	0	0
302	0	0	0	0	0	15.5131	21.9837	17.4075	10.3945	0	0	0	0	0	0	0	0	0	0	0	0	0	0	0	0	0	0	0	0	0	0	0	0	0	0	0	0	0	0	0	0	0	0	0	0	0	0	0	0	0	0	0	0
304	0	0	0	0	0	23.3164	24.4685	22.958	13.884	3.8809	0	0	0	0	0	0	0	0	0	0	0	0	0	0	0	0	0	0	0	0	0	0	0	0	0	0	0	0	0	0	0	0	0	0	0	0	0	0	0	0	0	0	0
306	0	0	0	0	0	31.1355	30.1723	27.4678	17.3771	7.7718	0	0	0	0	0	0	0	0	0	0	0	0	0	0	0	0	0	0	0	0	0	0	0	0	0	0	0	0	0	0	0	0	0	0	0	0	0	0	0	0	0	0	0
308	0	0	0	0	7.1882	38.9585	35.8741	30.9252	21.8305	11.6671	0	0	0	0	0	0	0	0	0	0	0	0	0	0	0	0	0	0	0	0	0	0	0	0	0	0	0	0	0	0	0	0	0	0	0	0	0	0	0	0	0	0	0
310	0	0	0	0	12.5475	36.2544	41.586	34.388	26.2912	15.5685	4.235	0	0	0	0	0	0	0	0	0	0	0	0	0	0	0	0	0	0	0	0	0	0	0	0	0	0	0	0	0	0	0	0	0	0	0	0	0	0	0	0	0	0
312	0	0	0	0	6.7874	37.9392	47.0227	38.5744	30.2545	19.3588	8.4259	0	0	0	0	0	0	0	0	0	0	0	0	0	0	0	0	0	0	0	0	0	0	0	0	0	0	0	0	0	0	0	0	0	0	0	0	0	0	0	0	0	0
314	0	0	0	0	9.4731	41.1984	52.4006	42.715	33.8568	23.5949	12.5726	0	0	0	0	0	0	0	0	0	0	0	0	0	0	0	0	0	0	0	0	0	0	0	0	0	0	0	0	0	0	0	0	0	0	0	0	0	0	0	0	0	0
316	0	0	0	0	14.5814	37.7461	55.9032	46.6542	37.295	27.693	16.6199	3.9045	0	0	0	0	0	0	0	0	0	0	0	0	0	0	0	0	0	0	0	0	0	0	0	0	0	0	0	0	0	0	0	0	0	0	0	0	0	0	0	0	0
318	5.4171	0	0	0	20.2268	38.8369	60.1142	50.3489	40.9977	31.4512	20.526	7.7154	0	0	0	0	0	0	0	0	0	0	0	0	0	0	0	0	0	0	0	0	0	0	0	0	0	0	0	0	0	0	0	0	0	0	0	0	0	0	0	0	0
320	16.2756	0	0	0	22.9202	44.8132	62.4391	53.9398	44.5992	34.9527	23.0967	11.4327	0	0	0	0	0	0	0	0	0	0	0	0	0	0	0	0	0	0	0	0	0	0	0	0	0	0	0	0	0	0	0	0	0	0	0	0	0	0	0	0	0
322	14.2205	0	0	6.5138	24.2365	43.4197	60.037	62.0273	47.8762	38.1804	25.4788	14.9863	3.4759	0	0	0	0	0	0	0	0	0	0	0	0	0	0	0	0	0	0	0	0	0	0	0	0	0	0	0	0	0	0	0	0	0	0	0	0	0	0	0	0
324	9.1689	7.4722	3.9703	17.3918	28.0638	48.5388	60.2364	57.7156	51.0141	40.132	28.1632	18.4112	6.8325	0	0	0	0	0	0	0	0	0	0	0	0	0	0	0	0	0	0	0	0	0	0	0	0	0	0	0	0	0	0	0	0	0	0	0	0	0	0	0	0
326	34.8266	5.1287	4.7085	16.1013	30.9433	48.7841	56.4519	61.0207	53.9887	41.973	31.1151	20.661	10.065	0	0	0	0	0	0	0	0	0	0	0	0	0	0	0	0	0	0	0	0	0	0	0	0	0	0	0	0	0	0	0	0	0	0	0	0	0	0	0	0
328	11.1758	10.0816	7.782	19.5478	34.5093	49.3235	62.9898	58.5044	55.8074	43.6999	33.925	22.8059	13.1689	3.2109	0	0	0	0	0	0	0	0	0	0	0	0	0	0	0	0	0	0	0	0	0	0	0	0	0	0	0	0	0	0	0	0	0	0	0	0	0	0	0
330	7.5262	18.0334	9.6885	16.7185	33.6574	47.6202	57.532	60.1167	59.7905	45.3301	35.6505	25.1862	16.1471	6.2993	0	0	0	0	0	0	0	0	0	0	0	0	0	0	0	0	0	0	0	0	0	0	0	0	0	0	0	0	0	0	0	0	0	0	0	0	0	0	0
332	43.0644	22.3086	23.1236	27.1855	36.6395	54.9828	59.8114	63.0376	62.9965	46.361	36.8834	27.485	18.517	9.166	0	0	0	0	0	0	0	0	0	0	0	0	0	0	0	0	0	0	0	0	0	0	0	0	0	0	0	0	0	0	0	0	0	0	0	0	0	0	0
334	39.3587	27.1171	18.1435	21.0369	40.4865	51.4885	53.6514	57.1577	58.1173	49.694	37.9731	29.5945	20.7102	11.8437	3.0383	0	0	0	0	0	0	0	0	0	0	0	0	0	0	0	0	0	0	0	0	0	0	0	0	0	0	0	0	0	0	0	0	0	0	0	0	0	0
336	42.0012	26.2555	26.0949	36.1404	34.6899	52.6489	58.9611	58.7241	58.7543	51.5588	38.9593	31.2912	22.8369	14.347	5.8889	0	0	0	0	0	0	0	0	0	0	0	0	0	0	0	0	0	0	0	0	0	0	0	0	0	0	0	0	0	0	0	0	0	0	0	0	0	0
338	36.4419	28.3228	26.6151	30.7403	40.0658	47.8906	51.7687	55.8201	56.8195	55.1784	39.8486	32.8549	24.8972	16.8688	8.5606	0	0	0	0	0	0	0	0	0	0	0	0	0	0	0	0	0	0	0	0	0	0	0	0	0	0	0	0	0	0	0	0	0	0	0	0	0	0
340	54.4948	28.9016	28.5115	35.9848	42.299	49.6369	57.9697	54.311	56.8098	53.8211	43.3033	34.2564	26.7806	19.2012	11.0501	3.2486	0	0	0	0	0	0	0	0	0	0	0	0	0	0	0	0	0	0	0	0	0	0	0	0	0	0	0	0	0	0	0	0	0	0	0	0	0
342	51.4807	30.9602	33.4849	42.9782	40.74	48.6237	53.1992	57.1097	56.7088	49.8672	46.304	35.6896	28.8153	21.4027	13.4303	6.3177	0	0	0	0	0	0	0	0	0	0	0	0	0	0	0	0	0	0	0	0	0	0	0	0	0	0	0	0	0	0	0	0	0	0	0	0	0
344	53.1516	51.719	31.7833	35.6497	46.926	50.3812	56.1187	54.2157	57.2108	52.6837	46.8678	36.9864	30.6914	23.3919	16.9975	9.2069	0	0	0	0	0	0	0	0	0	0	0	0	0	0	0	0	0	0	0	0	0	0	0	0	0	0	0	0	0	0	0	0	0	0	0	0	0
346	64.2992	38.0481	38.7743	42.6738	45.0495	48.9439	56.5107	55.0421	56.2831	51.4688	48.6698	37.4218	32.494	25.2947	20.3867	11.9475	3.2792	0	0	0	0	0	0	0	0	0	0	0	0	0	0	0	0	0	0	0	0	0	0	0	0	0	0	0	0	0	0	0	0	0	0	0	0
348	64.7903	54.3366	44.6269	43.506	52.5607	52.6815	54.7234	54.8415	56.7748	55.0349	50.3324	45.6898	34.2437	28.3983	23.2038	14.5628	6.3955	0	0	0	0	0	0	0	0	0	0	0	0	0	0	0	0	0	0	0	0	0	0	0	0	0	0	0	0	0	0	0	0	0	0	0	0
350	74.2229	58.6525	44.7075	46.2644	43.4859	57.4301	59.1993	55.3358	59.5292	54.3532	49.1865	45.33	35.8621	31.311	25.4377	17.3057	9.3486	2.5281	0	0	0	0	0	0	0	0	0	0	0	0	0	0	0	0	0	0	0	0	0	0	0	0	0	0	0	0	0	0	0	0	0	0	0
352	67.7313	61.909	49.6395	51.262	50.3538	56.0841	62.2731	57.1866	60.1336	53.8896	53.4591	47.199	42.379	34.0398	27.5286	19.8893	12.1409	4.3868	0.0262	0	0	0	0	0	0	0	0	0	0	0	0	0	0	0	0	0	0	0	0	0	0	0	0	0	0	0	0	0	0	0	0	0	0
354	76.4454	66.0941	55.0564	49.9265	55.0691	59.3425	56.8525	56.7848	58.4708	57.2793	53.4364	51.1177	45.6828	36.5789	29.7332	22.3106	15.9332	9.5562	3.6706	0	0	0	0	0	0	0	0	0	0	0	0	0	0	0	0	0	0	0	0	0	0	0	0	0	0	0	0	0	0	0	0	0	0
356	68.9292	63.8939	55.5846	54.4705	52.2995	61.0534	59.8636	62.2769	60.162	60.3234	57.8046	54.3618	49.5415	39.0621	33.015	26.9224	20.6548	14.4863	7.4258	1.9839	0	0	0	0	0	0	0	0	0	0	0	0	0	0	0	0	0	0	0	0	0	0	0	0	0	0	0	0	0	0	0	0	0
358	84.7919	71.8942	64.0193	57.1784	59.9192	58.293	63.0108	59.3558	60.0622	58.7168	56.1484	55.6153	53.0845	45.1753	37.3321	31.3905	25.1216	19.2297	13.3808	6.108	2.033	0	0	0	0	0	0	0	0	0	0	0	0	0	0	0	0	0	0	0	0	0	0	0	0	0	0	0	0	0	0	0	0
360	81.7742	77.1516	63.7909	64.638	61.524	60.9572	61.7732	61.9433	62.3308	59.0076	61.5168	59.1716	55.1068	47.7421	41.4312	35.5501	29.3756	23.7543	18.2527	10.7603	3.0378	0	0	0	0	0	0	0	0	0	0	0	0	0	0	0	0	0	0	0	0	0	0	0	0	0	0	0	0	0	0	0	0
362	99.9002	82.033	64.4342	68.572	59.2939	71.4431	67.5904	62.5639	66.6551	64.7519	62.6185	61.2971	58.7105	54.155	45.632	39.7293	33.7861	28.5474	23.0574	14.8384	7.7356	0.567	0	0	0	0	0	0	0	0	0	0	0	0	0	0	0	0	0	0	0	0	0	0	0	0	0	0	0	0	0	0	0
364	100.7795	87.0434	82.2771	66.5777	72.2196	71.1595	69.3406	68.2771	69.3972	70.0778	68.9962	66.307	62.5271	58.7106	53.9416	43.7615	38.0456	33.7512	27.7045	21.0565	11.7917	4.6482	0	0	0	0	0	0	0	0	0	0	0	0	0	0	0	0	0	0	0	0	0	0	0	0	0	0	0	0	0	0	0
366	107.0427	90.0079	87.8206	76.4878	74.5015	72.837	69.1843	69.8423	73.3592	71.6005	71.0303	68.6997	68.2775	63.237	56.3539	47.686	42.7504	38.8093	32.2204	24.9754	15.1527	7.9259	1.3737	0	0	0	0	0	0	0	0	0	0	0	0	0	0	0	0	0	0	0	0	0	0	0	0	0	0	0	0	0	0
368	111.3859	98.3128	97.5235	84.724	84.788	80.7408	78.0686	75.3771	72.9339	74.0295	71.6937	76.8865	73.6741	67.9647	62.2844	51.514	47.6114	43.1334	36.3973	28.7896	20.4968	11.1048	4.1626	0	0	0	0	0	0	0	0	0	0	0	0	0	0	0	0	0	0	0	0	0	0	0	0	0	0	0	0	0	0
370	121.4055	111.5458	91.0523	89.5925	85.1516	82.6304	77.2361	74.2103	78.2038	77.2067	77.9345	76.2285	78.6658	72.1129	68.0193	60.6043	52.3126	47.3149	40.0053	32.4816	24.9253	15.1908	7.483	0	0	0	0	0	0	0	0	0	0	0	0	0	0	0	0	0	0	0	0	0	0	0	0	0	0	0	0	0	0
372	151.4376	117.0798	100.934	98.9612	93.3972	85.6993	86.1886	81.2164	82.4671	83.1759	83.6954	83.4053	83.1059	82.1223	74.3492	68.7462	57.1463	51.1861	43.7135	37.8805	30.218	19.8348	10.7904	4.0049	0	0	0	0	0	0	0	0	0	0	0	0	0	0	0	0	0	0	0	0	0	0	0	0	0	0	0	0	0
374	162.4653	124.3363	115.7964	103.7991	101.0796	97.8487	85.2472	87.9668	87.3377	86.8794	88.4309	86.8974	89.597	86.7507	81.6169	73.7743	61.8746	56.4052	50.6191	44.7958	35.4021	25.3873	14.1218	6.249	0	0	0	0	0	0	0	0	0	0	0	0	0	0	0	0	0	0	0	0	0	0	0	0	0	0	0	0	0
376	152.868	144.5189	125.2409	110.1352	110.4305	101.0748	90.1412	91.3809	89.6495	93.0051	94.3065	91.6639	94.3761	92.8988	87.1884	81.1803	71.7877	63.0876	57.3307	50.3035	40.4425	29.9057	19.1848	9.4239	1.2008	0	0	0	0	0	0	0	0	0	0	0	0	0	0	0	0	0	0	0	0	0	0	0	0	0	0	0	0
378	169.5742	155.2667	134.7114	122.9827	112.6737	108.6672	101.3478	95.216	99.0818	96.8568	99.4497	103.4031	101.3033	99.6009	94.3042	86.4194	77.2897	69.5508	63.8291	55.6319	45.3248	35.3611	23.8633	13.3176	7.3141	0	0	0	0	0	0	0	0	0	0	0	0	0	0	0	0	0	0	0	0	0	0	0	0	0	0	0	0
380	202.1975	158.9447	153.1899	123.716	120.6435	108.2331	107.6992	104.6577	103.8513	106.0493	105.2335	109.1669	105.5789	107.0474	101.2856	94.8804	85.5536	75.8428	68.9572	60.5727	50.0792	40.6784	28.9566	17.3083	8.5771	0.3032	0	0	0	0	0	0	0	0	0	0	0	0	0	0	0	0	0	0	0	0	0	0	0	0	0	0	0
382	199.0539	166.5784	147.7388	135.901	130.8015	118.1535	112.13	108.6791	106.6923	106.7239	109.0966	115.4401	114.7203	112.1614	111.8362	103.4282	93.1721	82.338	74.2807	65.4321	56.5136	46.0665	34.1127	21.6984	12.0781	4.4146	0	0	0	0	0	0	0	0	0	0	0	0	0	0	0	0	0	0	0	0	0	0	0	0	0	0	0
384	196.9461	184.027	155.742	142.4629	138.1306	127.0474	120.1505	114.3753	113.6672	115.0609	116.6449	119.4506	119.9224	118.4125	116.0267	109.3346	99.4079	91.3546	79.5148	70.2101	62.8449	51.3679	39.0364	28.0906	16.0104	8.271	0	0	0	0	0	0	0	0	0	0	0	0	0	0	0	0	0	0	0	0	0	0	0	0	0	0	0
386	206.7143	178.3772	163.2612	151.4848	139.1921	132.9268	121.7043	117.665	115.6534	121.0903	123.757	127.0496	126.8256	125.4519	122.9596	117.4637	110.5235	101.0958	84.9763	76.7473	68.8277	56.7938	44.0441	31.7542	20.5692	11.4134	2.9628	0	0	0	0	0	0	0	0	0	0	0	0	0	0	0	0	0	0	0	0	0	0	0	0	0	0
388	225.9588	209.1196	177.2286	159.4152	150.7456	136.5898	128.0526	123.5768	120.8696	123.2991	126.4442	132.1726	135.9725	131.1692	130.5094	124.4284	115.0024	105.6286	90.73	83.5423	74.5372	62.0886	49.1935	36.5827	24.3563	15.1445	5.8692	0	0	0	0	0	0	0	0	0	0	0	0	0	0	0	0	0	0	0	0	0	0	0	0	0	0
390	234.3214	214.9909	185.1255	173.4382	153.127	145.3987	136.2463	129.7336	128.3852	132.3407	136.2941	144.0754	142.7168	143.6031	138.0538	130.0255	122.099	113.6112	102.2206	90.3349	80.2441	67.3806	54.3402	42.176	31.1603	18.3252	10.229	0.4914	0	0	0	0	0	0	0	0	0	0	0	0	0	0	0	0	0	0	0	0	0	0	0	0	0
392	261.1247	222.7269	211.0616	174.5289	165.7322	151.0035	140.416	134.0314	134.3973	131.5496	137.566	146.3402	148.5787	149.0292	146.7945	138.6753	134.4808	123.5254	111.3825	96.5437	85.1113	72.2352	60.0438	47.6075	34.1308	21.4799	12.6186	4.3474	0	0	0	0	0	0	0	0	0	0	0	0	0	0	0	0	0	0	0	0	0	0	0	0	0
394	270.6369	231.1963	205.6982	189.5009	177.6497	158.5538	146.5446	140.3526	137.6533	142.9457	142.1365	152.3509	153.4779	157.542	153.7895	148.0885	137.8982	131.0966	119.4315	102.6676	90.8638	78.8955	66.425	52.9675	40.2699	29.0865	17.1918	9.311	0	0	0	0	0	0	0	0	0	0	0	0	0	0	0	0	0	0	0	0	0	0	0	0	0
396	273.5544	246.7484	220.8914	193.7734	180.3299	168.1295	157.23	145.3764	144.7308	145.8516	152.884	159.6054	163.8555	166.8553	160.0058	156.3321	149.369	137.9963	126.4068	112.1773	97.6363	85.5997	72.523	58.3463	44.6759	33.5284	20.3606	11.2197	3.2478	0	0	0	0	0	0	0	0	0	0	0	0	0	0	0	0	0	0	0	0	0	0	0	0
398	295.1129	258.1786	233.2559	199.4403	191.2456	176.492	160.9973	155.0508	148.5278	151.5645	156.5551	165.5266	173.7989	172.4555	169.85	166.1542	156.9292	148.7469	133.3399	122.0101	104.5034	92.0614	78.6822	63.7702	50.8323	37.3443	25.2042	14.2651	7.1159	0	0	0	0	0	0	0	0	0	0	0	0	0	0	0	0	0	0	0	0	0	0	0	0
400	291.5554	266.3107	243.3086	205.0047	197.7948	184.3208	168.5149	154.7122	157.6558	159.1393	165.1732	171.6959	177.0444	178.4766	179.8676	170.0205	164.2574	157.2699	141.496	132.6402	111.3246	98.3205	84.1559	69.7542	56.9482	44.2422	30.0978	18.367	11.0805	2.0863	0	0	0	0	0	0	0	0	0	0	0	0	0	0	0	0	0	0	0	0	0	0	0
402	315.1093	286.9595	254.9754	221.1803	211.4126	194.1265	175.7738	164.5269	159.7566	164.3606	169.3905	177.5502	185.6623	189.1398	187.2279	183.3764	174.684	166.7871	153.811	139.8533	120.0595	104.3576	89.4382	76.7566	62.9151	48.8086	35.7507	22.4162	13.4667	6.5044	0	0	0	0	0	0	0	0	0	0	0	0	0	0	0	0	0	0	0	0	0	0	0
404	324.1124	291.734	253.8744	225.6298	214.196	200.6479	184.1789	170.5671	167.0656	169.6035	174.6707	186.3036	192.4212	195.286	194.5735	189.9596	184.9047	173.6195	163.3319	149.9904	132.4394	110.3294	95.8748	83.6865	68.8197	53.925	40.404	27.2439	16.6799	10.6412	0.3291	0	0	0	0	0	0	0	0	0	0	0	0	0	0	0	0	0	0	0	0	0	0
406	341.3756	301.3606	262.6846	247.537	222.7454	207.091	189.9127	178.2843	174.1467	174.0872	185.7587	188.7409	198.0993	202.4674	201.0438	198.1698	189.4774	184.1584	169.4917	158.9756	140.2784	116.454	103.0385	89.7004	74.5241	59.0978	46.1893	32.0464	21.2924	12.4103	3.4872	0	0	0	0	0	0	0	0	0	0	0	0	0	0	0	0	0	0	0	0	0	0
408	363.8706	326.9188	280.6572	252.9132	231.8729	212.0637	200.1166	183.6859	184.4141	182.385	192.1683	198.3482	204.3095	207.6411	210.2572	206.4519	200.4044	195.3155	183.546	167.191	150.6645	131.4253	110.3628	95.8542	79.7867	64.3568	49.325	36.7487	23.2092	15.9706	8.2387	0	0	0	0	0	0	0	0	0	0	0	0	0	0	0	0	0	0	0	0	0	0
410	349.6411	317.7541	296.0801	268.346	250.4118	227.4433	205.3244	192.8062	186.8647	188.6921	193.9485	203.0694	213.2076	213.2756	219.453	216.4556	211.5644	201.8616	192.7695	177.1896	160.1777	140.4587	117.6689	101.4299	85.0351	70.5355	55.0099	41.1954	29.3988	18.1043	11.2717	2.5365	0	0	0	0	0	0	0	0	0	0	0	0	0	0	0	0	0	0	0	0	0
412	400.0581	346.2677	308.7638	282.2964	250.9265	228.545	212.9909	197.0923	194.6364	190.8655	198.0835	212.6792	220.9347	224.3606	227.0356	227.8714	219.9501	210.5531	204.7399	185.1843	168.765	151.2451	124.9663	107.6688	92.1509	77.6367	60.6841	47.6775	34.2228	22.3712	14.6688	6.318	0	0	0	0	0	0	0	0	0	0	0	0	0	0	0	0	0	0	0	0	0
414	416.9368	335.2304	312.9555	284.7596	266.7604	238.9118	216.6747	204.5065	198.3462	199.4234	203.4089	217.2057	224.235	231.6335	234.575	232.5466	228.153	221.7374	210.1354	196.058	175.8475	158.688	135.1886	114.8421	99.2499	83.2711	66.3441	51.1188	36.9244	25.1124	16.9924	9.5259	0.4164	0	0	0	0	0	0	0	0	0	0	0	0	0	0	0	0	0	0	0	0
416	391.7298	371.9082	321.4233	289.726	273.3141	248.7265	228.181	207.7193	204.4353	204.8969	208.7919	220.2398	228.3008	234.2683	243.5741	243.1027	237.4566	231.8081	219.9523	206.2777	186.2914	169.4535	144.6667	122.2766	106.5748	89.0937	72.1539	55.3135	41.2687	29.644	19.8045	12.3568	4.7331	0	0	0	0	0	0	0	0	0	0	0	0	0	0	0	0	0	0	0	0
418	407.5896	367.3203	336.4497	309.2763	277.6776	260.5588	230.8988	216.6623	211.8954	205.9279	216.3309	225.9903	234.8444	242.708	247.0254	248.6508	243.0641	237.6004	228.9989	215.2588	196.9232	177.1833	153.3798	130.0229	112.71	95.1441	78.2736	60.9924	46.3076	33.7719	23.6686	15.3825	7.7882	0	0	0	0	0	0	0	0	0	0	0	0	0	0	0	0	0	0	0	0
420	420.3701	398.7388	338.7776	310.1422	282.5191	265.723	243.696	223.0431	215.5619	215.2509	219.6692	230.4324	241.2245	246.602	253.8819	257.5448	258.7354	250.784	240.619	225.0954	206.8854	185.4891	164.3392	137.8198	119.0057	101.4751	84.291	66.7076	51.5529	38.5694	26.6099	16.4797	11.1096	2.5305	0	0	0	0	0	0	0	0	0	0	0	0	0	0	0	0	0	0	0
422	415.2165	382.9992	354.2849	326.0572	301.6941	277.5212	247.366	225.3294	223.1696	220.7535	227.1819	238.3412	246.2667	252.7063	261.5915	264.5849	263.1027	253.7001	246.6872	231.1469	214.2029	194.1627	170.7501	147.6313	125.4939	107.8732	89.8418	72.4766	55.1752	41.7771	30.5807	19.8496	13.6577	6.291	0	0	0	0	0	0	0	0	0	0	0	0	0	0	0	0	0	0	0
424	447.654	385.0701	360.1518	330.4107	307.8275	275.9058	256.8917	238.012	228.7003	227.2669	231.3708	238.7039	250.4082	258.7008	266.1869	271.4261	272.3692	265.1144	257.9645	241.5128	224.1149	203.2426	177.8559	155.4154	132.0258	113.7855	95.4298	78.2848	60.4093	45.5449	33.5357	23.1443	15.6428	8.3025	0.6388	0	0	0	0	0	0	0	0	0	0	0	0	0	0	0	0	0	0
426	444.6934	414.9764	374.8382	334.7597	316.2002	290.9227	263.6858	244.7363	232.23	228.4037	234.3458	245.6768	255.9074	268.1965	270.8914	276.934	280.4848	275.5576	267.9699	251.164	232.4189	211.3021	185.8132	162.9654	138.8265	119.665	101.4846	83.7394	65.7849	50.6192	38.2362	26.972	18.9036	11.7686	3.9961	0	0	0	0	0	0	0	0	0	0	0	0	0	0	0	0	0	0
428	471.3392	425.2096	383.208	357.746	322.4919	299.3601	270.4938	249.0831	238.5298	234.9105	237.108	247.4605	262.251	266.1971	279.8052	284.6611	285.6979	282.6628	272.4575	261.0791	240.3624	218.0163	195.0375	173.3228	148.9407	125.8015	107.7698	88.3239	71.3271	55.6809	41.6083	30.0152	20.9268	14.6087	6.8807	0	0	0	0	0	0	0	0	0	0	0	0	0	0	0	0	0	0
430	485.5805	423.4881	400.2587	365.575	338.3268	304.177	278.3977	254.829	242.1694	238.8442	243.7668	251.7559	264.1427	272.7529	285.3211	290.2164	293.1805	292.8927	283.501	272.0666	250.6224	228.8015	202.2655	178.5096	155.5804	132.0104	113.0599	92.9622	76.9377	60.3804	45.358	33.7733	23.7324	16.3554	9.8185	1.5351	0	0	0	0	0	0	0	0	0	0	0	0	0	0	0	0	0
432	480.5132	458.1094	391.1984	371.8041	338.9386	308.277	282.8978	261.4135	247.9851	240.2927	249.8881	255.8983	268.5371	279.4782	289.486	296.9527	302.0492	297.9675	292.5916	274.275	255.7516	236.8595	209.2825	183.8528	162.3005	138.1396	117.7432	98.6316	82.2446	65.0656	48.6577	36.6643	26.8628	18.9025	13.2055	5.5461	0	0	0	0	0	0	0	0	0	0	0	0	0	0	0	0	0
434	471.9141	430.4257	402.1093	378.4661	342.6432	313.6814	290.2023	260.3256	252.4519	247.6915	253.1756	260.8637	271.731	283.4373	294.6597	303.2723	308.3672	305.0491	298.6281	284.4761	265.0445	240.4715	217.1758	192.4156	171.3908	149.0815	122.4714	104.3583	87.0392	69.7987	53.7524	40.5312	30.4866	22.1658	15.4548	9.1917	0	0	0	0	0	0	0	0	0	0	0	0	0	0	0	0	0
436	494.4638	452.9134	416.2313	383.6292	354.0379	326.645	294.9273	269.4536	256.748	249.5717	249.7624	263.0342	274.9876	284.9305	296.988	308.2276	312.2481	315.1037	303.484	286.0914	272.323	249.8495	225.1211	198.1398	179.8585	153.0496	127.4083	109.7139	91.9993	74.6751	57.0217	43.4703	34.3691	23.3973	16.5886	11.0974	3.7743	0	0	0	0	0	0	0	0	0	0	0	0	0	0	0	0
438	474.5315	443.085	434.9084	393.7263	365.0501	321.3876	298.1411	274.7173	258.8133	253.3133	255.1854	261.3645	276.4962	290.1305	298.4224	308.0852	315.675	316.144	311.4006	297.3245	281.2667	260.2688	232.5102	204.4992	183.829	158.4806	132.5699	114.6756	96.509	78.7564	60.8404	47.9199	36.6327	26.6679	19.0697	13.3649	6.4158	0	0	0	0	0	0	0	0	0	0	0	0	0	0	0	0
440	486.7139	463.5713	420.3151	394.181	359.4221	334.1963	308.6939	282.1739	265.1166	259.4337	259.9969	271.397	282.478	287.1391	306.046	316.4199	321.9551	324.4931	320.458	303.0611	288.9327	265.286	238.0039	213.1264	188.3377	167.3219	141.1607	118.746	100.4408	82.0944	64.7122	50.8493	39.0831	29.7446	21.237	15.8093	9.3129	2.6252	0	0	0	0	0	0	0	0	0	0	0	0	0	0	0
442	492.3731	464.4119	439.8941	400.9491	367.4266	333.0709	302.3593	285.2644	266.0257	261.0906	261.4511	269.1959	276.1353	291.6559	304.7261	319.9482	324.9692	328.801	321.2217	312.7574	294.5732	268.4683	243.4975	219.6744	194.7259	172.3222	146.7932	122.7718	104.3421	84.4474	68.5841	53.7733	42.4274	32.4271	24.0569	16.7447	11.817	5.5077	0	0	0	0	0	0	0	0	0	0	0	0	0	0	0
444	504.5338	476.6061	435.1099	398.1458	374.5087	344.1112	311.4093	288.3166	271.4683	263.1014	262.8149	270.8395	281.0911	293.9554	307.789	320.2954	328.5803	329.9648	327.9266	317.8771	299.3507	276.5801	251.6316	224.3104	200.5392	176.5142	152.9264	126.8428	107.3256	86.8252	72.504	56.98	46.4958	35.5763	26.4523	19.5685	14.1818	7.5361	1.2828	0	0	0	0	0	0	0	0	0	0	0	0	0	0
446	497.9861	499.801	440.3515	415.9575	379.5827	353.1302	317.2986	290.4759	276.4533	269.617	264.9665	272.8688	284.2854	298.0585	308.1192	323.3189	333.5657	335.0997	331.2888	324.4779	306.2447	280.2853	253.3336	227.6311	206.5121	184.2644	157.2032	131.0439	109.9271	90.9294	75.8033	60.2649	50.4492	38.9405	30.0298	21.2629	15.8142	10.3952	4.1872	0	0	0	0	0	0	0	0	0	0	0	0	0	0
448	525.4301	482.3147	456.7941	411.0107	374.5516	350.2902	318.6873	288.7916	281.1185	267.4723	267.1992	277.1211	286.065	297.245	308.322	321.482	336.0038	337.4483	333.1873	322.9918	309.3972	285.9518	260.4735	231.6968	209.0502	187.9989	163.1674	136.1122	112.6281	95.1471	77.7471	63.6334	51.7741	41.8073	33.3373	24.0791	16.6963	12.8378	6.7821	0	0	0	0	0	0	0	0	0	0	0	0	0	0
450	534.6177	496.6008	463.2007	425.4485	386.4331	355.0075	327.9621	298.6538	281.009	266.4688	272.3875	273.6304	291.8567	299.9318	312.1072	327.0439	332.2503	337.6812	340.8562	328.8424	311.0069	290.6102	266.0468	238.1855	215.8973	190.9491	165.1308	140.6812	115.3585	97.9698	79.7125	67.0488	54.9572	45.244	35.5283	26.986	19.0798	14.6178	9.7118	3.619	0	0	0	0	0	0	0	0	0	0	0	0	0
452	499.6988	475.8667	453.3916	411.3269	397.7081	356.6718	334.4218	301.0553	286.3916	270.156	269.4395	277.0677	286.8367	298.5966	312.4417	322.9642	334.0395	342.3139	341.3875	331.6964	315.591	295.2454	268.3118	241.4738	219.887	194.8652	169.4747	145.8219	118.1731	100.1395	83.3164	70.4858	58.2116	48.439	38.3748	29.447	21.5566	16.1044	11.8514	5.1663	0	0.1867	0.2191	0	0	0	0	0	0	0	0	0	0
454	518.7208	474.1275	453.027	433.6569	397.135	360.3991	330.7057	299.8166	287.6877	272.9497	270.174	274.9375	287.387	297.5547	313.8051	327.136	332.2656	346.6513	339.7799	335.5488	316.9492	296.4595	269.2115	244.3481	220.7826	198.1543	172.3565	147.8552	123.4977	102.332	86.9701	73.8549	61.5132	50.9284	40.3366	32.359	24.2417	18.317	13.7351	8.5099	2.811	0.5648	0.4419	0	0	0	0	0	0	0	0	0	0
456	491.9264	491.587	453.2528	421.7251	390.8221	364.1224	335.1414	302.9251	289.6706	275.8691	273.1567	277.1406	283.6472	296.0381	312.1459	329.1502	334.8847	345.2562	343.5284	336.9526	319.9964	300.7313	270.7558	246.7738	222.1524	199.0981	177.2151	153.0042	126.2302	104.7088	90.6954	77.3895	64.9618	51.7365	43.6871	34.7145	27.0537	19.7746	15.1839	10.2527	4.4906	0.9506	0.6692	0	0	0	0	0	0	0	0	0	0
458	508.756	476.2399	449.8718	415.1985	396.7068	366.9825	334.2795	311.295	289.4308	277.6408	276.3731	277.236	284.7069	297.1945	309.8695	326.5072	335.8333	347.6236	344.5994	336.3483	322.8121	303.9805	274.4281	250.4353	224.7009	205.5152	180.6408	157.129	132.2659	107.2764	93.9558	79.8921	66.7324	53.9819	46.6707	36.8708	28.4875	21.8929	16.2332	12.0813	6.7156	1.3456	0.4511	0	0	0	0	0	0	0	0	0	0
460	515.2702	470.5654	447.7409	429.3024	388.3844	363.8524	332.2037	309.1867	298.3158	275.2277	274.5676	280.0713	284.3854	294.8529	309.3104	321.8514	334.9743	343.9977	344.5898	334.7515	321.3987	301.528	277.5155	252.4951	231.3221	207.3103	182.0653	158.8772	134.5633	112.0336	95.4279	81.2072	67.9829	56.2647	48.9569	38.9014	31.5948	23.9358	17.5563	13.0612	8.1747	3.6404	0.228	0	0	0	0	0	0	0	0	0	0
462	494.723	463.3352	462.2654	423.976	394.0916	367.3604	335.1573	313.6665	291.9855	278.4561	275.8552	278.0163	284.7532	295.4371	306.6044	322.9886	337.0486	340.0778	344.6158	339.6329	323.1723	305.8347	278.5491	255.376	230.2653	211.6653	184.055	159.878	137.4908	116.0704	97.0162	82.6227	69.4746	58.6488	48.9393	41.2024	33.4157	26.261	18.8362	15.0533	11.0269	5.3882	0	0	0	0	0	0	0	0	0	0	0
464	517.9609	485.6975	461.5758	425.0564	401.1968	366.4432	342.2366	309.9887	292.0996	280.7367	274.8927	280.3779	285.4621	289.9384	304.1748	319.2164	330.3576	338.9263	346.6979	339.5368	324.4529	306.0897	279.4794	255.7017	231.553	210.7299	187.7951	162.0799	140.4107	117.9192	98.615	84.2027	70.9824	61.074	50.6974	43.3897	35.0342	28.8979	21.1455	16.039	12.6269	7.1319	2.1521	0	0	0	0	0	0	0	0	0	0
466	506.4207	493.1247	450.4671	430.0391	405.3659	372.2386	337.2537	309.7677	293.7742	280.2316	274.577	279.8157	281.5577	292.4027	307.5648	318.5987	332.0677	338.6339	339.76	336.5597	322.7254	307.3026	280.1355	258.1564	233.5603	211.6376	189.7101	166.8443	141.3217	122.2776	100.2554	85.9012	73.5821	62.7543	52.4996	46.8263	37.1111	30.9466	23.6564	18.3973	13.3867	9.3467	4.4386	0	0	0	0	0	0	0	0	0	0
468	494.6233	470.4917	457.0925	430.1717	394.5984	374.0118	342.754	316.6344	294.7374	281.5029	275.901	274.1807	285.3648	292.648	304.457	321.6198	330.0706	337.5553	340.1945	334.5404	320.9504	304.7116	281.1232	260.7487	235.4924	211.4838	191.3359	166.8518	143.9605	125.0681	102.3286	87.6428	76.2471	62.846	54.3468	47.568	38.4769	31.5912	25.7607	18.466	15.4357	11.1346	6.2988	0	0	0	0	0	0	0	0	0	0
470	482.4056	462.6846	433.8034	410.08	381.3455	373.4966	337.7558	317.1978	299.8694	282.3441	273.9952	278.4811	280.8806	287.0311	294.6961	314.082	324.0118	333.5987	335.5492	333.8831	319.0324	302.2832	278.4184	256.1448	235.7105	213.7613	191.2233	167.6097	143.0994	124.9875	106.7552	89.4013	77.3099	62.9214	56.2235	48.613	41.0306	33.6478	27.4041	20.6565	15.6713	12.3429	8.5204	3.3483	0	0	0	0	0	0	0	0	0
472	470.911	450.1381	444.1167	425.7884	402.0708	370.3688	346.4826	313.2118	296.2993	283.895	274.009	277.0493	276.2009	284.8191	296.4987	303.5625	320.6006	330.3723	331.9336	325.449	319.1668	301.1075	277.622	254.0848	234.7881	214.794	192.0793	170.6234	144.2526	128.7128	109.4336	91.3935	77.7279	65.0527	58.013	49.787	43.1359	35.4162	29.2285	22.0224	16.3829	13.8601	9.6279	5.5167	0	0.1673	0.1983	0	0	0	0	0	0
474	458.9089	455.9698	426.3783	420.0352	393.9734	360.2326	334.0138	313.7477	295.3278	282.0263	270.3258	268.9473	278.137	280.2938	290.2745	305.0095	318.8453	327.34	328.9777	323.3804	315.0446	300.8731	277.0858	253.9725	235.7448	214.4414	192.8065	169.7429	146.5536	128.5788	109.1779	93.262	78.1265	67.219	59.3142	50.9746	44.3734	36.8421	30.3485	23.5344	18.3155	14.9892	11.4682	7.1735	1.9591	0.509	0.4021	0	0	0	0	0	0
476	445.9848	446.1347	422.1282	405.2403	391.2841	364.7567	339.4887	314.9919	289.6405	275.5421	272.5819	271.1206	270.6902	280.095	284.4346	300.8198	312.8996	320.5967	325.6966	319.1827	308.3053	296.3563	272.9937	252.1473	231.8952	213.5574	191.579	167.736	149.6745	129.2717	109.7717	95.3233	78.4338	68.8379	60.5736	52.1283	43.4444	37.3726	31.2719	25.9879	19.3867	15.7143	12.3016	7.5655	4.86	0.8594	0.611	0	0	0	0	0	0
478	432.1947	435.5027	428.0555	408.9436	386.5366	355.376	335.9578	309.4934	291.5924	276.3037	266.7966	266.8585	272.3573	274.3163	282.2595	297.8648	306.5811	315.472	317.531	314.5029	308.0179	291.623	270.0482	247.3191	233.6997	210.7038	193.8381	170.1267	148.123	129.0839	112.118	96.9156	78.652	70.0541	61.5974	52.9559	44.577	39.9311	33.5821	27.0768	20.8131	16.9353	13.1958	10.4524	5.9183	1.2175	0.4122	0	0	0	0	0	0
480	417.9748	424.5061	428.2508	397.0545	379.2185	353.7023	335.5131	307.3793	290.3601	269.5713	262.7352	265.6464	265.8612	270.0167	280.3483	290.989	304.065	311.5778	313.0404	314.8265	302.1565	291.3769	267.2371	245.5467	229.0369	211.4452	191.3231	169.3596	146.5525	128.2324	113.6735	98.5744	83.8461	70.9896	62.4336	53.698	45.7241	40.6773	34.7884	27.3479	21.6384	16.9458	14.8052	11.2911	8.1129	2.9618	0.2085	0	0	0	0	0	0
482	402.4776	412.2753	410.2561	396.4039	371.7552	351.8048	325.1016	307.9789	292.1426	272.4996	263.52	261.9967	261.0762	264.3874	274.2763	289.0127	296.9437	306.1797	310.657	302.9761	297.2915	283.3999	264.8379	246.1972	226.143	209.6547	191.5902	167.8924	148.4226	129.3282	114.9053	97.5524	84.6803	71.7791	63.1415	54.3459	46.7889	39.6873	34.684	28.287	23.4646	18.4571	15.0993	12.6873	8.3262	4.2726	0	0.0971	0.1129	0	0	0	0
484	386.6384	399.7524	414.1439	392.3263	366.4943	350.8781	328.0153	305.9621	283.5463	273.7637	260.8286	261.4389	262.0835	263.6622	272.9369	277.7793	291.0765	298.6851	304.1126	301.3342	293.9004	281.7967	264.113	244.1169	227.1916	205.672	186.2783	169.6444	147.5207	129.8976	115.4469	99.3518	88.7588	72.5707	63.867	54.9964	47.8656	40.5619	36.2725	29.562	24.7504	19.5997	15.8288	12.8702	9.3196	5.9715	2.3022	0.2941	0.228	0	0	0	0
486	370.3851	386.8621	400.9329	387.7009	361.2594	350.8925	323.0636	304.0685	281.2265	262.7895	261.9904	252.4488	259.0451	255.1019	267.2489	277.5259	288.9597	296.6492	295.105	298.7468	288.8695	278.2061	258.4299	238.9955	221.2251	206.4825	188.6355	166.6172	148.7188	132.6125	116.8069	101.1727	88.2181	73.35	64.59	56.139	48.6432	41.4379	37.1898	31.2285	25.4212	20.2585	15.7368	13.083	11.3338	7.7706	3.2503	0.4946	0.3451	0	0	0	0
488	353.7317	373.6155	387.3553	379.4547	357.1489	336.7166	319.2684	296.5471	283.7178	264.886	258.0988	257.1758	252.7968	253.4072	262.6595	272.4762	282.7908	287.474	294.4436	291.4791	284.5123	271.2399	255.4859	237.3186	218.4301	203.6882	187.5005	167.2625	148.3497	131.8685	116.264	100.8378	89.2933	77.7684	65.3028	57.2822	48.8088	42.315	37.6549	33.1162	26.7819	22.206	16.8183	15.2009	11.1051	8.3579	5.342	0.6986	0.2321	0	0	0	0
490	336.7576	360.0939	373.4957	365.3697	345.4832	341.2425	317.9434	299.5434	271.3171	262.475	253.2021	248.5357	250.8859	252.3137	258.1421	270.2545	276.8253	283.6002	286.7169	284.4821	279.2314	265.8946	250.9236	235.7512	222.0632	201.3607	185.8408	166.3714	145.0816	130.4374	115.319	102.0698	88.9053	77.9592	66.0181	57.8249	48.9697	43.201	37.2538	32.5726	28.0066	22.7277	17.5727	14.9277	12.9682	9.413	6.213	2.588	0.1171	0	0	0	0
492	319.7726	345.6303	359.7026	370.5877	348.4611	333.6569	313.1801	288.1999	274.3641	259.9667	248.1023	244.681	246.6164	248.9942	254.5498	265.4742	275.4815	282.2158	282.1925	279.5116	272.7256	261.1473	248.4565	230.723	217.4659	204.2509	185.3324	167.2706	146.1625	128.9505	115.3256	102.3766	90.9872	77.8581	66.7994	58.1148	49.9604	44.1379	37.9456	34.1368	29.1219	23.7406	19.2176	15.2555	12.9748	10.6563	7.3941	3.7793	0	0.0281	0.0328	0	0
494	302.431	329.8359	345.5961	355.2957	343.4307	318.8318	309.2985	291.0308	277.6104	257.9922	249.3929	245.5958	241.2639	243.3028	249.6147	259.0315	262.954	273.2244	274.7205	274.1475	272.7789	258.5293	244.3812	227.2539	215.0016	202.7511	182.3566	161.006	144.7292	132.0683	117.32	101.7692	91.1369	80.3756	68.7761	58.3995	50.9612	44.6602	38.6438	34.4013	29.3684	24.0523	20.0238	15.2805	13.3729	10.9927	8.5389	5.0255	1.4194	0.0852	0.0662	0	0
496	284.6478	313.6097	330.1265	341.3382	348.3357	322.305	307.3272	282.963	267.9527	257.4437	245.8115	239.155	236.3505	234.1613	247.0882	254.1353	261.0942	267.5083	271.1646	268.8918	264.5412	253.9645	240.1188	223.5952	209.1507	196.962	179.5464	161.1274	143.635	130.0772	114.0227	101.24	91.1615	80.7643	68.9781	58.6613	51.7428	44.9565	39.3364	33.8897	30.1978	25.3656	21.5906	16.5027	13.4281	12.1046	9.2852	6.3746	2.9275	0.1433	0.1003	0	0
498	266.4441	298.0706	311.8901	326.9888	325.5918	313.786	295.893	281.9743	269.3514	248.8348	241.9483	239.9461	231.6668	232.9961	236.0141	243.6684	254.4095	262.2392	265.688	265.0413	258.1666	251.5123	235.6705	221.4004	207.1608	192.098	179.7087	160.3091	139.9613	128.1837	112.4896	99.5021	90.2065	79.9125	71.1218	58.9003	52.0841	45.2373	40.0233	34.038	31.2197	25.6268	21.2046	17.1508	13.2515	12.5474	10.7726	7.7318	3.6641	0.2023	0.0674	0	0
500	251.4287	277.5037	293.3213	312.3587	325.9158	315.1893	308.1923	276.9249	263.0364	249.5818	238.779	232.8446	229.0105	229.0432	234.0597	241.1071	247.2356	252.3545	254.7088	257.1969	251.9716	244.1396	232.7777	218.3728	203.7099	190.8718	177.0555	158.5727	141.9094	126.6991	113.7608	100.4485	89.4314	80.8796	71.4482	60.4721	52.4233	45.9755	40.4038	34.1836	31.0703	27.1308	22.8573	18.3947	14.4446	12.8621	10.928	7.8925	5.0464	3.383	0.034	0	0
502	253.0863	256.5055	275.5167	297.3592	315.3081	302.5977	301.1871	278.4181	256.2094	240.9245	236.5792	225.8705	223.5608	222.1446	227.3121	234.0574	243.7572	248.5919	249.5371	249.4737	247.0062	238.3567	226.3515	209.1713	199.895	190.855	173.3358	156.5903	139.0502	125.9764	112.1614	99.776	89.1492	80.7709	70.6216	61.4149	52.7449	46.7056	40.143	34.3164	30.5563	27.556	22.6757	19.0285	14.1862	12.3598	11.139	9.6085	6.0701	3.7873	0	0.1914	0.511
504	253.9312	235.1698	258.5963	282.0927	295.6473	298.1223	285.9532	268.5702	255.5826	237.3182	226.6591	222.8976	221.2933	218.6976	221.0864	226.3233	231.6143	238.8466	242.4802	244.1167	236.4627	227.8578	220.1601	204.2539	196.1212	184.0955	171.8085	152.368	138.2952	124.8662	110.3858	97.2253	89.0432	79.2151	71.3361	63.1115	53.0645	46.8072	39.8722	34.4467	29.0359	27.0978	23.399	20.6955	15.6847	11.7099	11.5461	9.8332	6.9658	5.0289	0.809	0.579	1.0306
506	236.9237	213.7521	241.6781	266.4439	284.2926	296.3486	273.5017	257.6696	251.7603	234.4919	223.7648	221.7808	212.6206	209.6391	214.8955	218.8683	227.4213	234.9932	230.409	235.1373	229.287	222.8131	213.6234	203.3126	192.9863	181.4025	168.0731	153.2139	135.745	122.9914	107.6597	97.5221	88.6095	79.5957	72.0021	62.8014	53.4449	46.639	40.0906	34.615	29.4496	28.1662	23.9787	21.3292	17.2379	11.8339	11.2991	10.4999	8.1383	5.754	3.3191	0.9742	1.5604
508	184.9447	192.1701	230.6914	257.0321	273.0094	285.4213	275.7424	256.7914	245.8022	230.4537	223.4641	215.1945	208.3466	206.8498	205.4383	213.6246	221.1723	230.0061	228.5641	228.1092	225.5525	217.155	207.459	198.548	185.4846	178.9061	165.3796	146.6639	130.4865	120.2932	107.3851	95.5424	88.2206	77.7222	70.171	64.6432	54.1714	46.5136	40.353	34.6804	29.9006	28.102	24.9479	21.0463	17.9964	13.5792	10.5947	10.601	8.8052	7.037	3.9374	1.3781	2.1024
510	180.594	186.4347	219.7408	247.3764	261.4438	280.6306	265.8996	258.1617	238.8422	223.7839	217.1912	213.9398	203.8279	202.4547	204.1069	211.567	215.6812	220.6697	223.074	223.6388	220.474	212.6873	202.9963	193.844	185.0095	173.9779	159.1518	145.6578	131.935	119.7336	106.4315	96.2304	86.8296	78.3108	69.129	61.9484	54.0221	46.3754	40.5407	34.6687	30.3545	26.7791	25.4589	22.5368	19.088	14.0009	10.0082	10.4975	9.2728	7.6633	5.3989	2.0842	2.6554
512	176.0938	202.5635	208.503	235.8211	249.5651	259.5306	262.1443	246.0661	236.7586	220.3006	209.2163	207.6038	196.0111	195.3671	198.0674	202.1001	209.4611	214.6373	216.6791	217.3971	212.5968	206.3466	196.5061	184.3908	179.5194	171.7235	158.5788	142.7783	129.7781	116.3995	104.372	94.1486	86.4148	77.3215	70.237	61.5765	52.8501	46.2184	40.5743	34.6452	30.8075	26.7211	25.3562	23.2163	19.4968	15.9736	10.2228	9.1025	9.3429	8.3294	4.8582	3.2262	3.2188
514	171.4685	203.4534	197.0086	222.3578	237.4099	252.9054	256.4053	239.2817	226.4347	216.4119	205.5285	197.4232	194.8432	194.2748	193.2952	196.9233	204.2281	206.1867	209.5879	209.5074	207.9494	200.6747	189.3519	182.5411	172.6379	166.9015	155.0749	139.086	126.6755	113.3304	103.1607	91.9699	84.5807	76.994	68.23	61.8695	55.8456	47.5664	40.6003	35.141	30.9268	26.6564	25.1775	23.0742	18.948	16.3069	11.8013	8.3488	8.9186	8.4611	6.9004	4.4461	4.436
516	166.8468	211.4181	185.4017	208.7611	232.3163	242.4964	254.4115	233.1628	221.0995	208.346	201.5365	195.3521	186.4903	188.9426	188.8868	190.5965	194.7157	201.6647	204.2357	202.0704	199.8582	197.2171	188.5577	180.5229	170.2203	161.5801	151.4465	139.5777	123.6009	113.5392	102.2019	89.8497	82.8405	75.1742	69.5479	61.1676	53.9482	48.4795	40.6499	35.6671	30.3857	26.6054	24.585	23.5416	20.3475	17.2584	12.9233	7.6782	9.0269	8.8456	7.318	5.5557	5.543
518	162.214	174.8079	173.6512	205.4677	220.9461	231.9987	245.7472	229.3146	220.4258	206.0498	195.6531	194.3986	189.2353	183.5088	182.2052	187.3914	194.532	195.1577	199.0417	199.4797	195.3353	190.5932	182.9621	175.0534	166.8035	157.5633	146.9832	135.7138	122.6257	111.1599	100.4213	88.455	83.917	73.7746	68.2515	60.6703	54.0427	46.596	40.722	35.5297	29.8486	26.5674	23.4806	22.3301	20.5081	17.4404	13.637	7.9521	7.4765	9.1881	7.938	5.7508	5.7377
520	157.4366	112.5622	172.3136	192.4956	209.2751	221.2149	236.4646	229.1109	210.2369	200.0388	195.7699	188.7364	179.7366	178.1826	179.7546	181.5435	187.5248	187.5965	193.7102	188.1755	185.6101	184.9675	175.073	167.024	164.876	154.2331	143.3633	131.697	119.2646	108.7832	98.1217	88.6672	80.888	73.4026	67.7644	60.8177	53.2831	49.1011	40.7854	35.0292	29.8391	26.5217	23.6239	23.1915	20.3349	17.4646	14.8712	7.5021	5.3178	8.9359	7.7029	6.6236	6.6086
522	152.505	112.1583	170.7219	179.1907	197.1242	210.1322	225.0129	214.7979	206.6681	195.8259	191.4016	179.3241	176.0521	170.0678	173.8077	176.108	178.4132	181.7603	185.0872	185.809	183.7874	178.4246	171.1557	164.6993	158.0207	150.7859	140.6455	127.5548	115.9336	106.5754	95.5086	85.0357	79.0045	71.5352	66.1998	60.1874	52.5719	46.2654	39.8011	34.5064	29.8201	26.378	23.7631	22.1844	20.3969	18.0007	15.2402	10.0576	3.4755	7.934	8.1728	6.5718	6.5568
524	147.4302	111.7183	185.4628	165.5681	184.5046	198.7673	216.2887	201.0479	201.8847	193.9905	185.537	176.1685	173.2999	169.8948	167.0323	167.8666	175.7244	178.9604	176.4578	178.7045	177.2838	170.3953	165.2803	155.8663	151.1531	146.1485	137.8057	124.4163	111.3371	102.5714	94.358	84.0043	78.6251	71.7005	64.3867	58.7253	52.3184	46.6394	40.6125	33.9639	29.7484	26.1798	23.8996	22.069	20.2764	18.4111	15.6966	12.1933	4.414	5.2553	7.9515	6.5794	6.5644
526	142.3088	111.3176	180.5397	151.7322	171.6999	193.6383	204.7386	205.6931	198.9561	184.615	175.0656	173.3631	170.0249	163.1086	163.4216	166.3941	167.5901	172.9822	173.7543	173.016	171.5401	166.5785	159.1023	154.4351	148.5305	144.0716	134.6264	122.6326	110.7127	100.9615	92.9566	83.3308	77.0277	70.3872	62.0032	58.371	53.0017	46.0728	40.5491	33.424	29.5972	25.9887	24.0497	21.6847	20.287	17.907	15.6318	12.547	6.0036	3.869	7.4817	6.8855	6.8698
528	137.127	110.9525	166.7442	137.6521	170.6188	180.8343	193.0139	196.7825	187.8239	180.0692	169.3677	168.8957	161.3511	158.953	160.997	160.5896	163.3992	165.4541	167.6248	168.7746	167.2395	164.2419	155.7693	147.9325	143.6789	138.8184	131.6038	120.5751	109.9052	99.5173	90.4337	80.373	76.0278	68.3107	62.4322	55.3574	51.5939	45.5575	39.9186	35.1044	29.4545	26.1761	23.9199	21.3002	20.1724	17.3423	15.852	13.1499	7.4098	2.1089	6.7083	7.0714	7.0553
530	131.7842	110.5469	116.0769	141.2571	156.1024	167.6885	180.967	193.2319	188.0754	174.0321	169.3091	164.7553	158.2559	154.7913	152.6333	157.8534	156.6125	161.65	161.9533	162.3607	160.3444	158.506	153.2666	144.7347	140.074	136.2088	128.0182	116.523	106.2595	97.797	88.3867	79.6801	73.1875	67.4902	60.9958	54.6274	49.7966	45.0324	40.0437	34.4515	29.2998	26.3605	23.187	20.9003	19.4523	18.1884	15.8455	14.2747	9.4758	1.2942	3.9984	7.8224	7.8046
532	126.2994	110.117	63.9082	139.3668	141.2418	154.2893	168.6246	186.7457	178.6757	176.2558	165.6697	162.4534	153.559	149.0833	150.0172	149.9818	153.0916	155.358	159.0103	160.7365	156.4066	154.5638	145.6614	142.5677	135.111	131.648	124.7019	112.6097	104.6555	94.8559	86.9635	79.9376	71.6469	67.1655	59.4422	54.9812	48.3238	43.4927	39.5722	34.7388	29.1376	25.9489	22.4335	20.4881	18.4785	18.1648	16.4473	13.2988	10.7365	1.986	2.0018	6.3913	6.3767
534	120.652	109.646	74.6495	140.799	126.0126	140.6127	155.9581	175.0689	178.3027	169.3839	162.3828	158.0571	150.7034	143.5425	145.9784	145.0746	151.8594	151.5727	153.0368	151.2569	153.4163	148.1412	141.2457	137.5537	134.0357	126.7872	120.5669	112.4815	100.7505	92.5071	86.6811	75.6716	72.0244	64.9869	60.4789	55.0765	48.9133	44.2226	38.9377	34.236	28.9633	25.2184	22.0357	20.0604	18.1613	17.9099	16.1228	13.9108	11.3711	5.1456	0	5.5698	5.5572
536	114.9014	109.1899	85.6796	137.4411	110.4734	126.6622	152.8128	165.1651	169.9952	161.9674	155.9434	150.1837	144.0424	142.1232	142.8924	140.6474	141.3986	147.7781	148.1307	148.7367	146.7694	142.7721	139.8212	134.0321	131.6242	124.3292	116.8086	108.5562	98.25	91.2854	82.4125	74.4905	69.095	64.9152	57.8331	52.8043	47.638	42.0305	39.4219	33.6808	28.0993	24.4763	21.6336	19.7673	17.8408	17.0912	16.2917	14.43	11.1395	7.5959	0	2.9575	2.9508
538	109.0365	85.8793	97.0152	129.672	94.5997	132.8328	141.9781	155.0624	159.6671	157.9246	152.8729	149.3525	141.165	142.291	136.9047	135.2881	138.5579	142.5412	140.4901	142.9707	144.199	140.3622	136.4554	131.2964	127.0039	123.992	115.0207	104.2227	98.2069	89.8278	81.0043	74.3945	67.8409	61.9703	55.9358	50.4604	47.445	41.7624	37.7792	33.4747	28.6185	23.7212	21.2963	19.5421	17.5163	15.3444	16.1877	14.2231	11.8792	9.4775	0	0	0
540	102.9951	98.2618	108.6183	117.0784	111.6816	120.8366	130.8415	144.6704	161.1425	151.7936	145.91	142.7477	138.5299	135.5052	133.7172	136.7714	135.2652	138.4383	137.6553	138.6939	140.3668	134.0027	131.1454	128.7325	122.353	115.8719	112.3511	104.4604	93.2968	85.297	79.1131	71.2594	66.3906	59.8088	55.0708	50.9046	46.2765	41.4788	36.2895	33.362	29.0257	22.9398	21.0861	19.3052	17.1782	15.0432	15.5179	14.1495	12.3632	9.7053	2.3848	0	0
542	97.0038	93.5552	88.3813	83.7582	113.5199	108.7775	119.8247	134.3043	153.8328	149.2524	145.5823	140.747	137.8221	133.3117	131.0911	131.9927	130.5301	134.4369	133.5014	137.4366	132.0396	130.5338	126.3518	125.9018	118.2654	115.1638	108.9166	99.5389	92.4963	84.6534	78.3891	69.9292	66.0132	58.7915	55.0497	49.168	45.2996	41.0451	36.9838	33.6059	28.5435	23.5081	20.9129	19.029	16.876	14.7644	15.0195	13.5951	11.1908	10.2584	6.1004	0	0
544	175.5801	114.8981	60.373	14.3383	114.8218	96.3382	108.5931	123.5922	144.0772	147.9275	141.1971	139.6297	130.6955	127.6615	125.6665	126.4153	130.7888	129.9728	131.3066	128.9505	130.5748	126.5372	125.2844	119.5803	115.1429	115.2928	107.1547	97.5652	91.0022	83.4006	77.0894	68.8583	62.6455	58.0777	54.3895	49.3122	43.8415	39.7425	36.1751	32.6209	27.8096	24.3773	20.726	18.7368	16.5787	14.4713	14.3696	13.7438	12.2909	10.5881	6.6345	0	0
546	176.3474	115.2992	60.454	35.3279	122.4726	83.4743	96.9558	121.9766	135.597	146.9316	136.0833	132.7069	122.7818	126.3565	123.8258	122.0406	125.2398	127.7346	127.5484	126.7576	126.721	123.8788	121.1093	119.0375	112.5599	109.2777	104.7752	95.4459	87.6501	81.0292	74.8571	68.1871	60.9356	57.7617	51.9469	47.8974	43.4445	38.2513	35.371	31.9486	27.9379	25.0953	20.514	18.4394	16.2573	14.1562	12.1236	13.8765	12.4836	10.2194	9.0195	0	0
548	177.3549	116.3284	60.8118	56.8932	111.2993	70.2107	103.7491	111.5556	126.7757	135.5146	131.7216	129.6283	123.9244	120.5048	117.9389	117.4078	116.2161	121.9086	118.3899	122.2328	122.2988	119.8819	114.6425	111.9429	110.1985	105.8919	99.8758	93.6918	85.8762	79.211	72.0952	66.0094	59.6923	55.2926	51.5177	47.0683	43.0473	39.1823	35.3318	30.0239	27.8123	23.6743	20.278	18.128	15.9517	13.8199	12.0635	13.271	11.9665	11.0271	8.5012	4.3655	4.3555
550	172.7856	117.346	72.9988	79.0461	104.8306	86.6254	92.6298	100.8422	117.6946	132.415	123.1688	126.3599	122.3819	116.7278	113.5121	118.8924	116.3218	116.9023	118.0549	115.7666	118.8445	116.6324	112.6144	108.3899	106.0069	101.4314	97.9743	90.6775	83.2427	76.9024	69.8529	64.0993	57.9573	54.0643	50.179	45.9138	42.0478	36.6808	34.5883	30.2732	28.2491	24.2163	20.5098	17.8026	15.6331	13.5496	11.9979	12.2546	12.1073	10.1613	8.7189	6.1187	6.1047
552	160.7282	118.6863	97.7833	102.0783	105.4996	86.499	81.4415	90.8964	108.6607	128.365	120.7173	120.2801	113.5093	113.2021	114.6611	113.4529	112.0657	111.3724	112.7312	111.6832	113.99	111.7978	106.9275	104.3271	100.0774	97.3663	93.9065	88.7096	80.4151	73.9339	67.2792	61.2505	57.4251	52.4576	47.8917	44.6162	40.1166	37.5867	33.4017	29.865	27.3978	23.9835	20.8871	17.5124	15.3842	13.3457	11.9604	10.6178	11.7821	10.9095	8.9352	7.8328	7.815
554	155.9573	120.0123	99.5306	81.9634	66.8234	88.0645	69.885	81.4305	99.3073	118.9521	113.9697	115.6881	113.9622	110.5565	106.7941	107.4717	110.1769	110.284	108.4326	110.918	112.1269	107.7155	106.5116	101.8401	100.2795	96.0011	91.2085	86.2057	77.9722	71.7892	65.9139	61.7715	55.07	51.896	48.0226	42.9205	38.5173	36.5346	32.4499	29.2564	25.2312	22.6523	20.7613	17.2051	15.2017	13.1292	11.9161	10.3164	12.123	10.7847	9.1733	8.359	8.34
556	167.0413	126.1646	76.9935	35.3941	0	100.4009	57.983	71.6773	99.9037	111.3275	116.206	110.6626	110.7849	106.3948	107.1406	106.1096	107.0928	106.0931	107.5203	107.3954	109.3042	104.8074	101.8067	99.251	96.284	96.8021	88.7385	83.0977	76.0258	69.9486	64.4842	58.8644	55.2452	49.7161	44.727	42.7748	39.4026	35.6712	31.6203	28.9957	25.6827	23.3517	20.1758	17.8119	15.0122	13.1047	11.766	10.0049	10.3121	10.4144	8.9451	7.7711	7.7535
558	184.2867	145.3861	87.8493	39.2189	17.3834	103.8016	45.7227	82.169	92.1242	103.4621	111.4861	106.6139	105.1456	103.0944	101.9934	101.6574	98.7171	104.1045	102.6137	102.0983	102.6143	99.7335	99.5586	95.8486	93.5212	90.19	87.147	80.4713	74.7558	68.3666	62.9813	57.8461	52.9549	48.2039	45.3377	40.8012	37.2776	34.6292	32.5538	28.6029	25.4952	23.3685	19.784	17.1855	14.8154	13.078	11.4002	9.6828	9.4273	10.1246	9.053	8.3003	8.2814
560	137.546	152.2781	86.6368	37.4755	35.3286	87.7712	66.8869	74.0895	84.068	95.3123	107.8513	104.1797	101.3667	95.154	98.4731	99.6123	96.7776	100.9801	101.9326	99.9297	99.0879	95.6763	96.739	90.7691	90.8277	89.0469	83.613	79.9751	73.2393	66.0374	62.39	56.119	51.2657	46.594	44.8024	39.9066	36.2497	34.7486	29.2408	27.2242	24.4356	22.2298	20.3255	18.2167	14.6056	12.8345	11.0177	9.3462	7.5931	10.312	8.9339	8.2818	8.263
562	159.001	149.6696	85.3441	46.5637	53.8364	92.5533	73.605	65.7349	75.7201	86.875	100.5189	101.4993	101.1871	95.1198	93.8203	93.1859	93.8264	94.3205	97.7231	96.88	94.083	94.134	92.2853	89.1327	88.8101	83.5976	81.3359	74.8398	69.9805	63.2713	60.1837	53.5543	51.5564	46.2273	42.1291	38.8987	35.1964	33.5553	30.5265	27.3027	24.4943	21.7723	19.9718	18.2858	14.382	12.4706	10.6936	8.9947	7.6105	9.182	8.8417	8.5128	8.4934
564	148.5268	146.6897	83.9754	66.9992	72.9111	77.4465	81.7176	57.11	67.0851	78.1557	97.1199	97.3929	98.0082	88.7665	91.278	92.0149	89.7018	92.8161	91.7673	93.4248	91.7669	93.6773	88.882	85.352	84.0049	80.0781	76.9775	72.1766	66.043	61.8206	56.1532	51.8245	47.2934	44.7473	41.4186	39.1096	34.0754	32.0784	28.7923	25.3769	23.3909	21.3711	18.8713	17.7528	14.9245	12.0904	10.3552	8.7595	7.625	8.4223	9.227	8.2165	8.1978
566	155.3817	134.1655	82.5811	70.8577	60.7106	51.6193	81.0196	48.245	58.2114	79.9516	90.6982	95.8192	89.8277	88.0909	88.2775	87.8085	88.017	88.9696	87.3756	88.1475	90.4326	87.7068	86.0277	82.022	81.4165	77.4391	75.9184	70.5747	65.93	61.7547	55.0323	50.8697	47.0081	42.2049	42.2651	36.7509	32.8983	31.0181	27.6528	25.2038	23.1948	20.7893	19.4205	17.162	14.1972	11.701	10.0746	8.5852	7.6413	6.9526	8.5409	7.9798	7.9616
568	117.9875	144.0154	115.3073	70.6642	32.6157	0	83.0976	39.1228	65.0095	71.9607	84.0968	92.6585	87.4079	83.9639	85.1764	80.525	84.4674	84.7161	85.6502	86.0915	86.3154	83.3963	82.6981	79.4269	78.4096	76.1816	71.166	66.7808	62.9995	58.9805	52.4659	49.3546	47.3323	42.9513	39.2166	36.2659	32.4861	29.8125	27.6357	24.1447	22.0278	20.7806	18.4949	16.5223	14.1626	11.3014	9.9209	8.4068	7.6593	6.6956	8.6887	7.7574	7.7397
570	122.6444	135.2691	128.9003	78.6726	35.89	17.0013	84.2017	50.9115	56.8671	63.6953	77.256	86.3647	84.512	82.9988	81.8826	81.1116	79.6687	82.4468	82.588	82.7935	82.4542	80.2051	78.6736	76.7274	74.0293	74.2085	70.4281	65.2219	60.7561	56.269	51.3766	47.401	44.4019	41.0089	38.3231	34.9522	30.1616	29.4564	26.2116	25.4436	20.8792	18.9936	18.3382	16.7504	14.548	12.1442	9.7577	8.4328	7.6051	6.4275	7.8034	8.0015	7.9832
572	111.9071	119.8337	115.3271	79.116	35.6662	34.6194	79.1293	67.3165	48.5612	56.0855	70.3263	85.8954	80.583	80.1873	78.5667	80.9782	79.3646	78.8371	80.8407	79.2688	79.6675	79.812	78.1713	74.4999	73.3888	71.3576	69.8698	63.5341	58.2992	55.2202	50.316	46.0154	42.9183	39.6667	36.5303	34.4692	30.8851	28.0751	25.526	21.7983	21.5619	18.5898	17.2688	16.6432	13.7807	12.2205	9.6055	8.4738	7.421	6.1615	6.6132	7.6932	7.6757
574	136.9607	128.186	110.3928	79.5286	45.3943	52.8575	89.8924	69.4257	39.9495	49.0123	63.123	81.5287	76.9166	75.9739	77.661	75.0096	75.2457	76.6939	76.0467	76.7102	76.4419	77.7268	74.9749	71.4518	71.1119	71.1341	65.3574	61.0808	57.6969	52.8812	48.5453	44.8681	42.742	37.7821	35.8754	32.9987	30.1546	27.9078	24.8771	22.0823	21.1875	19.3336	17.5629	15.1643	13.8854	11.7618	9.4425	8.3676	7.2263	5.8827	4.5158	7.3829	7.3661
576	124.0106	100.5604	110.2633	79.9091	65.603	71.7183	78.247	70.764	31.0322	41.6776	68.6052	75.2074	75.3932	72.0054	70.0788	71.2392	73.8326	75.6103	74.0012	74.8428	73.6254	71.2719	72.2114	68.7842	69.7393	67.0021	63.8317	60.5949	55.6286	51.6515	47.3109	43.0324	40.3734	38.1804	34.3629	31.3537	29.5183	27.2879	24.2266	22.2237	20.4273	18.1698	17.3029	15.8376	13.1553	11.7204	9.2685	8.1801	6.9581	5.591	4.3274	6.7605	6.7451
578	119.4094	90.3677	101.0179	80.2575	67.9371	56.9416	48.3041	72.7129	21.8106	56.4463	60.4193	68.639	70.6489	70.737	72.152	71.9003	70.684	71.5822	71.1157	72.7649	71.7224	73.055	70.3229	65.1936	66.1448	66.4103	61.2369	57.3685	52.1726	49.487	45.5475	42.6004	39.0973	35.1555	33.1546	31.0167	28.6838	25.5118	23.3761	21.6856	19.1498	17.9529	16.2218	15.4235	13.7618	11.5917	11.0895	7.9817	6.6772	5.417	4.1303	5.3821	5.3698
580	88.2136	87.6529	88.7572	80.7793	49.731	22.934	0	84.6648	45.8006	48.3141	51.9422	61.8251	69.9588	66.9864	65.229	67.0301	66.9558	65.2583	70.2783	73.5543	70.0886	69.2892	67.7214	66.9307	63.4158	61.3468	60.9895	55.9731	50.9967	48.8314	44.5243	41.2211	37.6596	35.6922	32.908	29.009	27.1587	24.9485	23.1376	22.3111	19.1356	17.1888	15.6166	13.9846	12.7174	11.4828	10.3555	7.7727	6.4496	5.3005	3.9247	4.8673	4.8562
582	103.7001	54.6239	76.9163	74.1619	46.4812	22.5675	16.6886	81.2711	45.6837	39.9155	44.1461	54.7822	65.0377	65.6314	65.0451	66.2016	68.3414	65.3816	66.6435	67.2779	64.8085	67.5215	65.0925	63.1632	62.4815	59.8282	58.4183	52.6268	50.6685	46.4891	43.9627	38.4291	36.8531	35.2365	31.1727	29.0788	26.7856	24.7965	22.7443	20.3167	18.8141	15.8276	15.1551	13.3353	13.0213	11.3482	10.636	7.5553	6.3473	5.1792	3.7115	2.2473	2.2422
584	85.0075	75.3042	83.0945	64.328	49.7122	25.222	33.937	78.3146	52.3415	31.234	37.0565	47.4902	61.8579	63.0875	65.6214	63.854	65.5524	65.5949	65.6348	62.9802	64.2249	64.3032	62.6028	61.234	58.866	58.6818	54.7654	53.8575	47.8776	45.8759	41.9097	37.6632	35.6992	33.1079	29.9072	28.1352	25.3434	24.1404	21.7281	19.6584	19.2698	16.6875	15.0309	13.4603	12.7635	11.2344	10.1121	7.9276	6.2386	4.9804	3.4896	2.0155	0
586	90.3186	58.379	66.777	69.6304	53.0135	35.9141	51.7398	90.3305	61.246	22.2671	29.7249	50.0663	57.3504	59.71	60.8372	61.6954	61.5106	64.912	60.5036	63.3648	60.3586	61.9667	59.0432	59.3936	57.373	55.5331	54.8773	51.7306	46.2841	43.6439	38.5642	36.2297	34.0437	30.8055	28.8148	28.3318	25.2946	22.2572	21.6297	19.6302	16.8412	16.3824	15.2772	13.3085	11.8759	11.5759	9.8602	9.3336	6.1223	4.7721	3.2702	1.775	0
588	57.5329	39.3863	54.7686	69.7953	56.384	55.0306	70.0919	86.0052	53.489	13.0199	37.7696	43.6296	52.6708	56.9763	58.7492	57.3783	59.8417	60.4305	61.0707	60.7244	57.5803	58.778	58.075	56.5458	55.6321	54.6066	51.4653	48.8168	47.4265	41.1958	38.3388	36.4922	32.3212	33.0578	28.5325	26.5061	23.6895	22.4282	20.7656	18.4931	16.4406	15.3638	13.9082	13.0167	11.9846	10.5308	10.0843	8.8992	5.9987	4.5604	3.0481	1.526	0
590	97.8407	51.7863	50.6635	66.6765	59.8319	57.3004	56.0426	56.5034	58.0414	26.2191	31.3658	36.9846	47.8295	54.2211	56.0531	55.7841	56.2481	57.4451	58.433	56.654	58.7432	57.6927	53.1851	54.5505	53.0783	52.8818	51.2048	46.1345	44.0274	40.3201	38.043	34.9533	32.5797	30.0491	26.5478	25.4537	23.2015	21.4274	20.2792	17.6202	15.6627	15.0333	13.9548	12.5856	12.0942	10.9465	9.3973	8.313	5.8686	4.3525	2.8159	1.2689	0
592	61.5371	41.0421	65.5155	70.0387	76.7554	48.2823	24.314	3.0058	55.7352	33.7853	24.8528	31.1655	42.9815	54.2954	54.7832	54.3689	57.6318	57.031	56.6311	54.8918	53.6842	55.1889	52.6502	52.3051	49.1776	51.0118	49.5967	45.9299	43.1098	38.9915	35.7844	33.3023	31.7114	29.7011	27.24	26.1596	22.4981	21.1676	18.662	17.3635	16.813	14.3056	13.2471	12.9632	11.4303	10.3373	9.5015	7.8173	7.4303	4.1515	2.5826	1.7781	0
594	78.5847	53.288	56.6833	63.7117	82.1057	51.8217	22.8061	18.6073	72.1029	33.4145	18.0905	26.0586	37.9311	50.6544	52.1561	53.175	55.587	54.9202	54.9179	53.1255	55.2689	53.4688	52.4765	51.0404	50.7202	48.8416	45.8676	44.4495	40.1989	38.5753	34.9168	33.1722	30.7424	29.4394	26.8302	24.7579	22.1193	20.7448	18.0276	17.6645	15.6043	14.0195	13.4315	12.8102	11.0664	9.8435	8.9558	9.0542	6.683	3.9405	2.961	0	0
596	62.1453	64.8091	33.1846	57.7659	84.3755	45.8368	36.3604	34.7986	68.213	43.1589	11.0842	20.764	35.9961	46.2196	50.6507	51.0978	51.6819	54.8978	51.6184	53.1522	51.7402	51.9209	51.1487	50.9243	48.3234	47.6306	45.8124	43.128	39.2741	36.0902	32.9643	31.0437	29.7464	27.083	25.438	23.6776	20.3273	19.5562	17.4819	16.7821	15.7311	14.0752	13.0396	12.282	10.2429	9.2727	9.1613	7.5605	6.2651	3.721	3.6832	0	0
598	66.0607	41.9545	25.9342	60.8585	74.0324	57.4895	53.6178	51.6032	76.1577	36.8924	3.8252	20.5715	31.2415	41.6149	46.1944	49.3598	48.1811	50.3517	51.1718	48.5044	48.5802	49.6151	48.4588	47.4704	46.4946	47.8923	44.1927	40.6825	38.6955	35.4341	34.0573	29.4748	29.6057	26.4131	24.2314	22.1939	21.0884	18.7377	17.842	15.4726	14.5388	13.3124	12.477	11.9862	10.2205	8.5726	9.1256	7.7476	6.2953	5.4231	0	0	0
600	85.9039	36.1987	39.5967	52.3598	83.5747	76.4464	71.5006	69.0161	69.2291	37.7303	5.3068	15.5828	26.2966	36.8185	47.4137	46.952	48.0086	48.6035	50.7377	48.2683	49.5417	48.3618	47.2334	45.6581	45.6215	44.6915	43.2857	42.1153	37.5103	33.4139	29.7114	30.4741	26.7895	24.9941	23.3552	21.9751	19.8996	18.3905	16.166	15.3627	14.7049	12.67	11.8524	11.4992	10.4111	9.7922	8.6921	8.4227	7.1001	5.728	0	0	0
