Description	EOS-60																																																				
EEM type	"Dilution- & Scatter-corrected, Calibrated Data (ppb QSE)"																																																				
Scan date	10/1/2013 13:21																																																				
Excitation	240-500nm by 5nm																																																				
Emission	290-600nm by 2nm																																																				
Calibration	Michael_Fluoromax4_April08 (07-Apr-2008)																																																				
Slit settings	"5nm Excitation, 5nm Emission"																																																				
Dilution	20																																																				
Row 1	Excitation(nm)																																																				
Col 1	Emission(nm)																																																				
Data	Fluorescence(ppb QSE)																																																				
																																																					
	240	245	250	255	260	265	270	275	280	285	290	295	300	305	310	315	320	325	330	335	340	345	350	355	360	365	370	375	380	385	390	395	400	405	410	415	420	425	430	435	440	445	450	455	460	465	470	475	480	485	490	495	500
290	6.2432	9.8938	0	0	0	0	0	0	0	0	0	0	0	0	0	0	0	0	0	0	0	0	0	0	0	0	0	0	0	0	0	0	0	0	0	0	0	0	0	0	0	0	0	0	0	0	0	0	0	0	0	0	0
292	0	0	0	0	0	0	0.5909	1.2059	0	0	0	0	0	0	0	0	0	0	0	0	0	0	0	0	0	0	0	0	0	0	0	0	0	0	0	0	0	0	0	0	0	0	0	0	0	0	0	0	0	0	0	0	0
294	8.3883	0	0	0	0	1.2376	2.9224	2.3855	0	0	0	0	0	0	0	0	0	0	0	0	0	0	0	0	0	0	0	0	0	0	0	0	0	0	0	0	0	0	0	0	0	0	0	0	0	0	0	0	0	0	0	0	0
296	10.053	0	11.0583	0	1.9851	3.6675	5.3586	3.5342	0	0	0	0	0	0	0	0	0	0	0	0	0	0	0	0	0	0	0	0	0	0	0	0	0	0	0	0	0	0	0	0	0	0	0	0	0	0	0	0	0	0	0	0	0
298	22.2409	14.5005	11.0158	10.723	4.5683	6.0284	7.723	4.6471	1.3735	0	0	0	0	0	0	0	0	0	0	0	0	0	0	0	0	0	0	0	0	0	0	0	0	0	0	0	0	0	0	0	0	0	0	0	0	0	0	0	0	0	0	0	0
300	20.7141	17.1852	16.4274	13.5993	7.0788	8.4897	9.4047	5.7273	2.7086	0	0	0	0	0	0	0	0	0	0	0	0	0	0	0	0	0	0	0	0	0	0	0	0	0	0	0	0	0	0	0	0	0	0	0	0	0	0	0	0	0	0	0	0
302	40.3918	32.6834	17.801	13.9621	9.6699	11.0544	10.598	7.4616	4.0697	0	0	0	0	0	0	0	0	0	0	0	0	0	0	0	0	0	0	0	0	0	0	0	0	0	0	0	0	0	0	0	0	0	0	0	0	0	0	0	0	0	0	0	0
304	45.5374	32.6514	14.7331	9.0212	0	13.6282	11.7953	9.2018	5.4354	1.5872	0	0	0	0	0	0	0	0	0	0	0	0	0	0	0	0	0	0	0	0	0	0	0	0	0	0	0	0	0	0	0	0	0	0	0	0	0	0	0	0	0	0	0
306	17.2793	25.1063	10.455	16.6633	7.5027	16.2028	13.5844	10.7494	6.8023	3.1782	0	0	0	0	0	0	0	0	0	0	0	0	0	0	0	0	0	0	0	0	0	0	0	0	0	0	0	0	0	0	0	0	0	0	0	0	0	0	0	0	0	0	0
308	51.6762	35.4908	15.7788	15.5101	19.5639	18.7746	15.3702	12.1013	8.7427	4.7707	0	0	0	0	0	0	0	0	0	0	0	0	0	0	0	0	0	0	0	0	0	0	0	0	0	0	0	0	0	0	0	0	0	0	0	0	0	0	0	0	0	0	0
310	32.6228	35.4093	27.7144	16.4148	18.5024	16.857	17.1585	13.4551	10.6858	6.3653	1.8866	0	0	0	0	0	0	0	0	0	0	0	0	0	0	0	0	0	0	0	0	0	0	0	0	0	0	0	0	0	0	0	0	0	0	0	0	0	0	0	0	0	0
312	56.5041	58.4157	37.1481	22.3529	14.7072	19.8394	18.8351	15.2862	12.365	7.9142	3.7531	0	0	0	0	0	0	0	0	0	0	0	0	0	0	0	0	0	0	0	0	0	0	0	0	0	0	0	0	0	0	0	0	0	0	0	0	0	0	0	0	0	0
314	56.3798	48.5921	43.8883	30.1917	19.3449	26.559	20.4928	17.097	13.836	10.0842	5.5996	0	0	0	0	0	0	0	0	0	0	0	0	0	0	0	0	0	0	0	0	0	0	0	0	0	0	0	0	0	0	0	0	0	0	0	0	0	0	0	0	0	0
316	54.9516	59.8591	55.6684	38.6416	19.7636	21.6651	27.7782	18.8248	15.2397	12.19	7.4014	1.9097	0	0	0	0	0	0	0	0	0	0	0	0	0	0	0	0	0	0	0	0	0	0	0	0	0	0	0	0	0	0	0	0	0	0	0	0	0	0	0	0	0
318	58.3517	54.7273	49.6199	36.0393	21.6747	25.629	28.953	20.4509	17.1714	14.0013	9.1401	3.7734	0	0	0	0	0	0	0	0	0	0	0	0	0	0	0	0	0	0	0	0	0	0	0	0	0	0	0	0	0	0	0	0	0	0	0	0	0	0	0	0	0
320	85.986	61.29	49.9502	36.0698	29.1146	26.723	30.5695	22.0315	19.0513	15.5588	10.7613	5.5909	0	0	0	0	0	0	0	0	0	0	0	0	0	0	0	0	0	0	0	0	0	0	0	0	0	0	0	0	0	0	0	0	0	0	0	0	0	0	0	0	0
322	68.3791	58.4577	40.7442	43.5799	30.316	24.8842	28.6197	25.306	20.7827	16.9943	12.2823	7.3283	1.9434	0	0	0	0	0	0	0	0	0	0	0	0	0	0	0	0	0	0	0	0	0	0	0	0	0	0	0	0	0	0	0	0	0	0	0	0	0	0	0	0
324	72.0084	73.2868	59.8427	53.3436	31.1675	28.2905	35.5822	27.3158	22.443	18.3037	13.7679	9.0023	3.8198	0	0	0	0	0	0	0	0	0	0	0	0	0	0	0	0	0	0	0	0	0	0	0	0	0	0	0	0	0	0	0	0	0	0	0	0	0	0	0	0
326	95.5767	52.2619	55.8878	43.4071	30.7602	25.4932	33.2297	31.8906	24.0217	19.5479	15.2101	10.7888	5.6266	0	0	0	0	0	0	0	0	0	0	0	0	0	0	0	0	0	0	0	0	0	0	0	0	0	0	0	0	0	0	0	0	0	0	0	0	0	0	0	0
328	81.7186	49.7775	66.8921	49.6842	38.1084	33.4271	34.4485	32.0804	28.5558	20.7249	16.5827	12.4982	7.3615	2.1474	0	0	0	0	0	0	0	0	0	0	0	0	0	0	0	0	0	0	0	0	0	0	0	0	0	0	0	0	0	0	0	0	0	0	0	0	0	0	0
330	71.7438	71.0516	52.1943	46.1289	38.2562	34.7096	33.636	34.9856	31.8736	21.8426	18.0576	14.0764	9.0259	4.2127	0	0	0	0	0	0	0	0	0	0	0	0	0	0	0	0	0	0	0	0	0	0	0	0	0	0	0	0	0	0	0	0	0	0	0	0	0	0	0
332	79.9044	81.2441	74.3765	55.2615	34.3116	41.8273	35.3984	36.5371	35.4093	22.6556	19.254	15.3607	11.3508	6.1297	0	0	0	0	0	0	0	0	0	0	0	0	0	0	0	0	0	0	0	0	0	0	0	0	0	0	0	0	0	0	0	0	0	0	0	0	0	0	0
334	101.1303	65.8352	68.7486	52.9864	47.0332	34.6406	32.1401	32.9836	33.2517	30.0398	20.3425	16.539	13.5151	7.9202	2.4573	0	0	0	0	0	0	0	0	0	0	0	0	0	0	0	0	0	0	0	0	0	0	0	0	0	0	0	0	0	0	0	0	0	0	0	0	0	0
336	106.5066	78.9789	68.1769	59.4093	40.8999	35.7036	35.0094	32.9867	34.3071	29.945	21.3448	18.403	15.2701	9.594	4.7628	0	0	0	0	0	0	0	0	0	0	0	0	0	0	0	0	0	0	0	0	0	0	0	0	0	0	0	0	0	0	0	0	0	0	0	0	0	0
338	85.7378	83.622	67.7391	53.6104	45.8331	35.5201	37.1007	34.0858	38.0888	32.4711	22.2659	20.1361	16.6475	12.4743	6.9235	0	0	0	0	0	0	0	0	0	0	0	0	0	0	0	0	0	0	0	0	0	0	0	0	0	0	0	0	0	0	0	0	0	0	0	0	0	0
340	77.738	76.9364	71.4838	61.4385	47.425	43.2393	36.173	34.3544	36.6869	33.1064	27.5098	21.722	17.9065	15.1522	8.937	3.0527	0	0	0	0	0	0	0	0	0	0	0	0	0	0	0	0	0	0	0	0	0	0	0	0	0	0	0	0	0	0	0	0	0	0	0	0	0
342	106.7016	76.9043	74.3205	60.9669	42.6544	43.2031	40.4303	36.1963	37.8286	33.9212	28.716	23.287	20.3854	17.3099	10.862	5.9368	0	0	0	0	0	0	0	0	0	0	0	0	0	0	0	0	0	0	0	0	0	0	0	0	0	0	0	0	0	0	0	0	0	0	0	0	0
344	105.0719	78.5479	71.3059	60.3705	49.9684	43.8312	45.0554	38.6174	37.7125	38.0754	32.1307	24.7283	22.6948	18.9188	14.9483	8.6521	0	0	0	0	0	0	0	0	0	0	0	0	0	0	0	0	0	0	0	0	0	0	0	0	0	0	0	0	0	0	0	0	0	0	0	0	0
346	94.0042	82.6546	82.1278	65.613	53.4091	44.4885	43.1609	38.6953	40.3751	38.5504	35.3893	28.4594	24.8998	20.4577	18.8271	11.2278	3.6183	0	0	0	0	0	0	0	0	0	0	0	0	0	0	0	0	0	0	0	0	0	0	0	0	0	0	0	0	0	0	0	0	0	0	0	0
348	96.179	102.718	87.5291	67.431	53.3595	45.7477	45.297	43.6238	41.5269	41.2642	38.2026	33.3224	27.0224	24.1039	21.8083	13.6859	7.0572	0.7345	0	0	0	0	0	0	0	0	0	0	0	0	0	0	0	0	0	0	0	0	0	0	0	0	0	0	0	0	0	0	0	0	0	0	0
350	109.2776	92.7258	83.3013	75.4025	56.6637	51.0445	48.0777	44.6131	42.2808	41.7966	39.6808	36.3345	29.0046	27.5384	23.9083	16.7744	10.3164	5.3056	0	0	0	0	0	0	0	0	0	0	0	0	0	0	0	0	0	0	0	0	0	0	0	0	0	0	0	0	0	0	0	0	0	0	0
352	116.1126	102.1779	91.1628	68.5794	57.8558	55.001	52.1887	49.2173	48.7977	46.2053	42.2852	41.8633	35.7527	30.7671	25.874	19.6869	13.3985	7.1082	3.1782	0	0	0	0	0	0	0	0	0	0	0	0	0	0	0	0	0	0	0	0	0	0	0	0	0	0	0	0	0	0	0	0	0	0
354	132.877	108.9641	92.3579	77.7967	71.271	56.0542	53.8028	53.2532	51.1186	50.3692	45.1311	41.6999	38.4849	33.7851	28.4289	22.4207	17.5504	12.4994	6.3629	1.1228	0	0	0	0	0	0	0	0	0	0	0	0	0	0	0	0	0	0	0	0	0	0	0	0	0	0	0	0	0	0	0	0	0
356	129.2664	127.082	96.7638	85.107	64.6646	58.6364	56.3085	53.613	53.9189	50.5698	49.6527	47.3524	43.0214	36.7182	32.1251	27.4985	22.9044	17.6468	11.3911	3.5548	0	0	0	0	0	0	0	0	0	0	0	0	0	0	0	0	0	0	0	0	0	0	0	0	0	0	0	0	0	0	0	0	0
358	124.6521	118.7638	105.7064	84.8339	75.8985	64.2723	60.887	58.0075	54.5989	54.9523	50.8094	49.0453	48.4282	43.4678	36.919	32.4139	28.3785	22.606	16.0877	8.9503	3.6795	0	0	0	0	0	0	0	0	0	0	0	0	0	0	0	0	0	0	0	0	0	0	0	0	0	0	0	0	0	0	0	0
360	138.6675	124.8539	107.4734	92.5999	79.3015	64.303	61.5832	60.4881	60.7883	55.2848	55.6885	55.3806	53.4372	48.7417	41.4758	37.39	33.5953	27.3347	21.2681	13.7128	5.514	0	0	0	0	0	0	0	0	0	0	0	0	0	0	0	0	0	0	0	0	0	0	0	0	0	0	0	0	0	0	0	0
362	145.5554	130.256	115.3347	95.7855	80.1713	72.2966	66.0497	61.2117	64.966	60.7296	59.9423	60.1184	56.686	53.0065	46.1189	42.5596	38.2159	32.5848	26.3893	17.5697	9.5494	3.445	0	0	0	0	0	0	0	0	0	0	0	0	0	0	0	0	0	0	0	0	0	0	0	0	0	0	0	0	0	0	0
364	162.4761	134.8017	112.9574	104.1229	86.443	79.369	72.8848	69.9402	66.7141	65.6582	65.5604	63.7197	60.5758	59.3888	53.1386	47.5517	42.6774	38.6994	31.3424	22.7885	13.9673	7.1887	0	0	0	0	0	0	0	0	0	0	0	0	0	0	0	0	0	0	0	0	0	0	0	0	0	0	0	0	0	0	0
366	170.5778	148.9416	129.3141	108.1038	92.8419	84.1003	80.6256	73.9836	74.0911	73.0297	71.6949	70.4726	69.1578	66.7632	57.7607	52.4094	48.0419	44.644	36.1571	27.6048	17.6633	10.8601	3.6878	0	0	0	0	0	0	0	0	0	0	0	0	0	0	0	0	0	0	0	0	0	0	0	0	0	0	0	0	0	0
368	176.8836	163.4685	150.7654	115.0777	105.5001	87.8701	85.2053	80.1734	78.4284	77.0844	73.5773	72.1502	73.7066	71.7342	64.3809	57.1464	53.7742	49.2364	40.8163	32.2923	23.8092	13.0453	6.452	0	0	0	0	0	0	0	0	0	0	0	0	0	0	0	0	0	0	0	0	0	0	0	0	0	0	0	0	0	0
370	178.3246	164.5662	148.6098	124.3357	110.5341	97.3748	89.3846	84.1287	83.5727	84.0444	82.531	81.4381	80.8233	76.7256	72.4352	64.0845	59.3204	53.6765	45.2661	36.8321	28.3619	18.2908	10.6367	1.2994	0	0	0	0	0	0	0	0	0	0	0	0	0	0	0	0	0	0	0	0	0	0	0	0	0	0	0	0	0
372	196.7084	179.2997	166.5374	128.3468	117.7523	102.1381	96.9309	91.5225	88.8204	88.854	87.8126	85.3775	86.6611	83.7764	78.7287	73.6927	65.0132	58.2036	49.8216	43.2437	34.3448	22.4986	14.0228	6.1503	0	0	0	0	0	0	0	0	0	0	0	0	0	0	0	0	0	0	0	0	0	0	0	0	0	0	0	0	0
374	219.6196	180.7551	163.2687	145.7989	128.521	113.2151	100.2653	98.4591	97.7276	96.0576	95.2863	93.1374	94.5571	92.9169	86.7615	81.5338	70.5839	64.4157	57.8867	51.3158	40.2064	29.2269	17.6716	9.0832	0.3988	0	0	0	0	0	0	0	0	0	0	0	0	0	0	0	0	0	0	0	0	0	0	0	0	0	0	0	0
376	209.7163	202.5425	170.6682	146.2554	139.8852	121.3782	111.1004	105.0653	101.6554	103.7194	103.0774	99.2845	104.0917	101.0822	97.4861	88.6142	80.1506	72.2286	65.7293	57.3892	45.9066	33.896	22.3127	13.1697	5.2806	0	0	0	0	0	0	0	0	0	0	0	0	0	0	0	0	0	0	0	0	0	0	0	0	0	0	0	0
378	228.5312	220.9793	187.8834	164.3945	146.4233	129.8505	120.8484	109.0142	111.7107	111.7061	111.2332	113.261	111.9309	110.2164	104.2728	98.1949	87.7392	79.7892	73.3264	63.2639	51.4289	40.1455	29.1194	16.0065	9.0617	0	0	0	0	0	0	0	0	0	0	0	0	0	0	0	0	0	0	0	0	0	0	0	0	0	0	0	0
380	242.6677	228.6124	192.2549	174.6495	150.3062	135.6442	128.9441	122.0461	119.2927	117.9043	118.9275	118.2835	121.4607	119.9383	113.5865	107.0929	98.0613	87.1524	78.9714	68.7795	56.8075	46.2384	33.5363	21.0857	12.8749	4.3722	0	0	0	0	0	0	0	0	0	0	0	0	0	0	0	0	0	0	0	0	0	0	0	0	0	0	0
382	277.7044	229.4372	207.6484	179.5861	164.4981	143.9137	135.2214	132.1668	127.6984	124.252	124.6539	128.2161	129.9097	129.0033	122.6929	113.9039	105.0033	94.7496	84.8461	74.281	64.1121	52.4125	39.0884	25.2903	15.5503	7.9005	0	0.0209	0.0245	0	0	0	0	0	0	0	0	0	0	0	0	0	0	0	0	0	0	0	0	0	0	0	0
384	274.4408	244.81	212.8654	194.7955	175.5997	154.0501	145.3492	134.7805	128.9126	131.5363	130.6237	139.1117	137.6932	138.3896	130.0092	125.9133	113.9507	100.4902	90.6232	79.6915	71.3017	58.4888	44.3408	31.0695	19.4558	11.4264	1.8934	0.0623	0.0486	0	0	0	0	0	0	0	0	0	0	0	0	0	0	0	0	0	0	0	0	0	0	0	0
386	284.4817	271.7674	226.9082	207.1058	185.2431	165.04	153.5813	138.3011	142.0552	138.2735	143.0006	143.8465	149.5383	143.1664	140.8131	131.7537	122.8802	111.844	96.6635	87.1195	78.1282	64.7082	49.6937	36.4822	25.0229	15.1901	7.1055	0.1035	0.0726	0	0	0	0	0	0	0	0	0	0	0	0	0	0	0	0	0	0	0	0	0	0	0	0
388	297.4711	275.3953	239.7869	216.6527	195.8197	173.2423	160.7685	154.1205	146.2792	145.8377	150.2818	155.6093	154.0043	152.4211	151.5235	142.7891	131.9783	117.6361	103.039	94.8431	84.6767	70.3821	55.2089	42.7782	29.1464	18.3444	9.6929	0.1448	0.0484	0	0	0	0	0	0	0	0	0	0	0	0	0	0	0	0	0	0	0	0	0	0	0	0
390	313.8338	304.0686	255.4789	229.5943	198.7273	182.9888	171.5148	159.6775	156.2233	151.0405	158.0606	164.6311	164.9638	165.4542	162.782	152.7095	141.6718	130.0113	114.7957	102.5663	91.224	76.0541	60.7223	46.4175	35.6307	23.3726	14.5372	4.9408	0.0242	0	0	0	0	0	0	0	0	0	0	0	0	0	0	0	0	0	0	0	0	0	0	0	0
392	336.063	318.2218	263.3707	234.982	214.7739	196.6283	178.9191	169.233	162.9353	157.8024	164.1794	166.8157	173.4626	174.4385	168.1708	160.7873	153.242	137.4789	123.6962	109.6275	96.4126	81.2348	66.7754	52.9065	39.9433	27.3311	16.5317	8.2631	0	0.1973	0.2318	0	0	0	0	0	0	0	0	0	0	0	0	0	0	0	0	0	0	0	0	0	0
394	350.4417	327.8647	282.9755	249.9314	221.5338	205.9483	187.505	172.3046	168.121	167.4475	169.9675	175.9091	184.2313	181.815	175.8502	170.0487	159.2002	145.4157	131.2357	116.5942	102.5076	88.2654	73.8715	59.3122	45.0279	32.6268	20.0908	12.3198	3.0545	0.5881	0.4607	0	0	0	0	0	0	0	0	0	0	0	0	0	0	0	0	0	0	0	0	0	0
396	362.6957	328.9037	300.6261	260.7621	234.3072	208.0562	197.7788	183.0985	180.7694	175.5492	178.6829	188.6583	190.2511	190.717	190.1764	178.4351	171.2908	157.0398	142.514	124.5286	109.6628	95.3515	81.3795	65.7366	50.414	38.5467	25.5599	15.6915	6.5126	0.9752	0.6875	0	0	0	0	0	0	0	0	0	0	0	0	0	0	0	0	0	0	0	0	0	0
398	368.6602	349.1784	316.4045	280.9224	247.1282	221.4816	199.3254	192.1445	182.7323	186.1879	189.1223	195.5536	202.6041	202.2723	199.9388	191.0327	179.0635	166.8368	152.8634	135.3753	116.93	102.9173	88.954	72.2108	57.1761	43.2742	30.1386	18.8994	11.032	1.3605	0.4567	0	0	0	0	0	0	0	0	0	0	0	0	0	0	0	0	0	0	0	0	0	0
400	419.7636	368.0916	324.6584	283.5633	255.6694	232.2058	214.5247	202.1436	190.9116	186.1236	195.2693	206.1021	210.0785	214.0796	211.8835	200.7541	192.1808	179.4597	161.2263	146.5614	124.1501	110.6289	95.4973	78.8951	63.8953	47.7763	36.2089	22.1932	14.6378	5.728	0.2276	0	0	0	0	0	0	0	0	0	0	0	0	0	0	0	0	0	0	0	0	0	0
402	434.3829	364.3978	336.1688	299.4955	271.3194	241.2302	222.9544	212.0861	199.5425	198.0627	202.5431	216.0609	218.8038	223.7674	219.5741	214.2891	198.6497	187.4772	174.08	156.2698	135.5924	118.0877	101.8223	85.8912	70.4501	55.4252	41.2399	27.1923	17.1588	9.7787	0	0.0812	0.096	0	0	0	0	0	0	0	0	0	0	0	0	0	0	0	0	0	0	0	0
404	425.576	384.4107	354.407	305.8796	289.0342	248.7447	235.9982	217.4155	204.6458	206.2487	210.2242	218.1405	229.4861	231.5997	229.3445	222.2961	212.7076	201.0349	183.4097	165.6606	146.1554	125.469	108.5926	92.8157	76.9378	61.1698	45.3472	31.5729	20.9845	13.397	3.3448	0.2422	0.1909	0	0	0	0	0	0	0	0	0	0	0	0	0	0	0	0	0	0	0	0
406	442.5431	388.0538	347.0909	327.7205	298.5464	266.6745	240.653	225.1781	220.7389	214.5282	218.2544	229.6169	236.022	236.725	240.7466	231.4336	221.8357	208.5001	192.8159	176.0658	155.3599	133.0225	115.7637	99.4331	83.2526	66.9801	52.0555	37.8506	24.7743	15.6823	6.3696	0.4023	0.2854	0	0	0	0	0	0	0	0	0	0	0	0	0	0	0	0	0	0	0	0
408	461.4167	397.8596	365.3994	342.8044	306.4585	277.4755	253.5235	232.44	223.031	221.1762	230.2087	233.417	242.6929	247.8973	252.7019	244.1501	236.3076	221.4714	202.9475	186.7062	167.0914	142.3059	123.1209	106.2076	89.1713	72.89	57.0644	42.3164	28.2338	19.9132	10.9868	0.5623	0.19	0	0	0	0	0	0	0	0	0	0	0	0	0	0	0	0	0	0	0	0
410	455.3784	446.6537	395.41	352.4944	319.4039	285.1337	260.9613	242.0989	233.2648	233.1175	234.632	246.6282	253.7926	256.422	258.3934	256.1084	245.3021	235.2854	216.0044	198.1849	178.6923	153.6644	130.4613	112.4347	95.0754	79.4683	62.8004	46.9819	33.4439	22.052	14.2856	4.9916	0.0948	0	0	0	0	0	0	0	0	0	0	0	0	0	0	0	0	0	0	0	0
412	498.0057	458.7171	396.4261	359.3622	325.5884	299.0907	272.79	251.2095	243.2383	239.2629	241.4801	248.2408	257.4455	270.3602	268.7616	265.0013	252.775	244.0303	226.8372	209.9908	189.054	163.3917	137.7954	119.0864	102.3445	86.7198	68.5271	53.7994	38.4392	26.4383	17.2294	8.6026	0	0.1387	0.1632	0	0	0	0	0	0	0	0	0	0	0	0	0	0	0	0	0	0
414	525.7101	462.9882	416.0007	369.7968	335.3901	307.477	282.8116	261.6206	248.2629	243.6527	245.0173	255.5461	269.2329	273.2833	273.0503	273.8	262.9742	254.8481	238.5964	216.7824	197.0738	174.6133	147.9324	126.419	109.598	92.409	74.2403	57.5754	42.1892	30.0184	20.3903	12.718	3.1216	0.4156	0.3258	0	0	0	0	0	0	0	0	0	0	0	0	0	0	0	0	0	0
416	519.263	469.2674	422.6901	392.1597	355.7812	309.628	289.7061	264.1841	253.9936	248.9725	253.5406	264.0466	280.285	280.9882	288.4216	283.6548	274.9139	261.4962	247.3601	227.3908	205.3703	183.7382	159.8317	134.0415	117.1031	98.3086	80.1224	62.0606	47.6599	34.4374	23.9821	14.9605	7.6133	0.6931	0.4891	0	0	0	0	0	0	0	0	0	0	0	0	0	0	0	0	0	0
418	558.2556	470.241	433.1676	404.1566	366.8214	330.9876	293.7898	279.7036	263.0095	259.6843	259.9976	270.7847	279.935	289.8329	293.4088	293.3053	283.438	274.8977	256.6794	238.2897	216.1422	194.0246	166.9587	142.006	123.3464	104.4586	86.6757	68.2575	52.7186	37.766	27.2029	18.1904	11.5411	0.9733	0.3271	0	0	0	0	0	0	0	0	0	0	0	0	0	0	0	0	0	0
420	541.8673	497.4243	458.5873	397.6571	374.526	335.174	303.6145	285.7962	277.4464	261.6183	262.4638	273.346	287.3336	293.5919	298.6982	303.1005	295.8824	283.2019	269.5828	249.9242	225.7374	202.8598	179.317	150.0243	130.0974	111.5775	93.3365	74.4955	58.7014	43.1428	29.8029	21.077	13.5657	5.0097	0.164	0	0	0	0	0	0	0	0	0	0	0	0	0	0	0	0	0	0
422	561.5498	508.6331	456.83	424.164	388.9487	354.5415	316.5311	295.6252	280.1566	269.9497	271.5439	285.2964	292.5764	301.9266	306.9811	308.6572	306.9591	293.1775	282.1013	259.2769	238.6806	212.094	187.1832	162.7112	137.3952	118.7733	99.2626	80.794	62.5431	46.713	34.3291	23.4035	16.5803	9.6392	0	0.2845	0.3334	0	0	0	0	0	0	0	0	0	0	0	0	0	0	0	0
424	556.6049	532.7914	466.2602	438.6345	391.9779	359.9252	325.91	298.7684	281.0984	275.2649	274.7266	290.8977	296.4442	307.0747	317.7293	319.8677	315.6431	302.7097	289.5669	268.208	245.0142	223.2322	196.2234	171.6596	144.7445	125.2127	105.2296	87.1367	68.01	51.7696	38.3471	26.4368	19.0865	11.4935	3.4526	0.8563	0.6689	0	0	0	0	0	0	0	0	0	0	0	0	0	0	0	0
426	575.6636	539.6833	480.0877	430.3813	406.8166	364.6791	335.6096	305.3067	292.0077	279.1227	284.316	290.7524	304.7929	310.249	327.933	324.3911	322.2232	312.3259	299.1232	279.4703	259.0714	231.1266	203.4952	178.9516	152.3929	131.5043	111.8468	93.1735	73.6338	57.0715	43.0116	30.9389	21.159	14.541	6.7554	1.4341	1.0082	0.0019	0	0	0	0	0	0	0	0	0	0	0	0	0	0	0
428	603.7359	547.2282	485.1185	462.9603	414.467	375.4105	335.3445	314.8887	298.1946	286.5356	289.3717	297.3761	312.3353	319.8425	329.8218	331.3351	332.7379	322.6228	307.7045	287.6436	267.3171	243.1605	213.5061	187.7856	161.9149	138.0781	118.7194	98.4178	79.4405	61.474	46.5532	35.0694	24.9458	17.4717	9.995	2.0206	0.6808	0.0038	0	0	0	0	0	0	0	0	0	0	0	0	0	0	0
430	617.9805	529.5457	506.097	461.046	423.4055	390.8517	354.3646	323.0282	301.3972	290.833	294.4934	299.8696	312.6343	325.7329	337.5364	342.9567	339.3446	328.0492	321.0678	299.4723	277.0882	249.6924	224.3068	196.1323	172.2573	144.7307	124.6594	103.725	85.3196	66.7821	50.955	37.8635	27.975	19.7379	12.6643	4.5602	0.3492	0.0057	0	0	0	0	0	0	0	0	0	0	0	0	0	0	0
432	625.862	550.9149	507.051	478.9685	437.1201	394.4836	351.3115	330.8188	310.3819	296.9056	294.7663	306.7072	316.3692	328.6073	339.5686	345.7827	344.3428	338.7239	328.8569	309.3985	284.7949	259.8515	230.046	201.3053	177.3582	151.2952	130.0148	109.674	91.0084	72.0769	56.2893	41.5268	31.441	21.9963	15.8806	8.5061	0.0133	0.4532	0.5229	0	0	0	0	0	0	0	0	0	0	0	0	0	0
434	637.5375	569.2523	534.6024	468.6108	437.7734	396.0421	370.7685	331.6319	313.2629	302.9867	304.7501	310.9785	324.6219	329.3291	343.4907	351.2358	349.9995	345.1791	336.3551	317.1487	294.0569	266.992	237.7756	210.5157	185.0465	161.0748	135.423	115.6841	96.4292	77.4269	60.1433	45.5709	35.1153	26.0481	18.6667	11.6099	3.2664	1.3533	1.0512	0	0	0	0	0	0	0	0	0	0	0	0	0	0
436	655.6577	565.2499	518.7681	491.7885	452.3666	406.3613	371.4182	336.7202	318.0479	305.7437	306.3732	312.0245	321.1207	336.6014	347.2898	354.3708	356.7893	353.592	342.3395	325.4701	299.2181	273.8565	242.9992	217.973	194.0431	168.2144	141.0657	121.5827	102.0361	82.9385	63.491	49.0215	39.1748	28.4575	20.6062	14.5311	7.3495	2.2657	1.5871	0.1218	0	0	0	0	0	0	0	0	0	0	0	0	0
438	612.8261	572.2145	536.6369	502.9973	454.3492	421.1192	379.262	346.4737	324.5883	312.4087	309.3519	319.8258	328.229	340.8498	352.9619	362.0062	363.066	361.9294	353.3379	335.2583	310.159	280.2028	254.2669	223.4931	199.7484	175.4645	146.9618	127.1757	107.1026	87.5058	67.8925	52.0534	42.3009	31.8697	23.5364	16.3784	9.8633	3.1939	1.3545	0.2456	0	0	0	0	0	0	0	0	0	0	0	0	0
440	635.422	592.2741	537.9587	511.5862	471.8698	421.6602	390.2531	351.5136	327.423	316.1315	313.053	322.1023	324.0141	346.2232	354.5844	364.4149	369.327	365.8382	354.2447	339.7152	319.0642	292.2914	262.8351	230.6461	204.9429	183.9911	153.9669	131.7154	111.4858	91.3287	72.3563	57.83	46.0091	35.5118	25.8249	19.1922	12.7921	5.5854	1.1181	0.3712	0	0	0	0	0	0	0	0	0	0	0	0	0
442	641.6159	590.5613	538.4975	510.9614	479.0175	427.6267	391.2092	359.6251	335.7279	318.2302	319.6789	325.7956	333.4055	346.5806	359.146	370.5127	373.8098	371.2987	362.4623	348.8001	324.0734	297.111	267.0753	237.4146	212.8655	189.471	162.0419	136.2066	115.8358	94.264	76.823	60.3996	49.1184	38.7597	28.4065	21.3458	15.2991	8.7424	0.8774	0.8247	0.522	0	0	0	0	0	0	0	0	0	0	0	0
444	646.3827	602.3971	548.1372	525.9587	472.2473	431.0093	397.5786	365.5648	332.1107	322.4478	324.1617	323.8525	334.5109	352.8231	360.8154	370.7661	372.8571	376.2981	370.9428	351.4153	330.1826	302.8923	271.6622	241.0971	217.5123	194.6945	166.1426	140.7489	119.3713	97.2317	81.346	64.4336	52.7226	41.3191	32.5318	23.8515	17.4991	11.1111	4.4427	1.6132	1.0511	0	0	0	0	0	0	0	0	0	0	0	0
446	661.3759	611.6711	542.2268	520.9877	485.1891	434.4883	409.2933	366.2026	340.6922	320.5337	318.5692	330.0674	333.6956	346.0764	365.2479	374.1114	379.7047	379.1485	369.1436	353.7447	333.766	308.4762	278.3294	249.2552	223.7457	199.5629	173.7744	145.437	122.5889	101.9651	85.307	68.5628	57.7803	45.2388	35.9407	26.2702	19.2237	14.202	7.7259	2.4137	1.5882	0.2995	0	0	0	0	0	0	0	0	0	0	0
448	622.2242	608.7321	568.0539	525.6706	485.598	450.472	402.4003	373.2106	345.9126	324.3267	322.9552	327.0045	339.417	347.8517	364.8578	375.3962	380.9054	382.3756	378.2843	360.254	338.5692	314.8284	283.3022	255.5091	230.4811	205.4566	179.7503	152.1842	125.9232	106.8289	88.0173	72.7942	60.0539	48.5885	39.6676	30.1122	22.1356	16.6446	10.9232	3.2279	1.7732	0.6038	0	0	0	0	0	0	0	0	0	0	0
450	673.5794	605.804	561.7602	528.6553	496.7172	452.0162	411.493	376.3356	356.3533	330.9924	326.5707	325.5447	337.5524	354.2178	361.7413	376.8523	382.3615	388.0211	380.0218	367.2035	342.3536	316.0622	285.4721	261.0068	235.0457	210.311	182.634	157.8255	129.296	110.3951	90.7605	77.0862	64.0257	51.6743	41.5618	32.7151	24.3664	18.7306	13.0494	6.8066	1.9608	0.9129	0	0	0	0	0	0	0	0	0	0	0
452	635.8969	629.5273	566.3547	529.3551	495.463	449.8132	413.8592	373.8249	349.4026	334.9508	329.644	335.4471	341.3988	348.4635	365.668	375.8548	377.9972	385.3664	383.5125	370.5513	349.7185	321.0482	291.33	260.5111	237.0248	215.0003	187.3906	161.4035	132.7689	113.3697	95.2716	81.3893	68.0858	56.6427	45.314	36.2175	27.8472	20.7573	15.5737	9.1893	2.1522	1.6013	0.7988	0	0	0	0	0	0	0	0	0	0
454	647.2235	615.9774	584.4012	532.5121	505.359	465.3438	413.185	381.4924	360.9739	336.5485	327.3247	332.5211	343.0097	347.0572	364.2731	373.9659	383.21	387.9883	382.906	371.9828	352.7979	324.6638	294.0801	264.5877	240.7277	217.8959	190.4201	165.2111	138.924	116.3793	99.8473	85.5788	72.2062	59.7947	48.5014	39.0287	30.1052	22.8165	17.6044	12.1358	6.7996	2.678	1.6108	0	0	0	0	0	0	0	0	0	0
456	645.7303	621.6027	570.4466	529.7549	501.7894	464.6787	424.5257	383.2061	350.5309	338.3782	334.7899	331.7727	343.8732	346.1014	362.9965	376.4918	382.6824	385.6441	382.4715	369.885	355.1411	326.3784	297.735	272.8352	247.2008	222.1702	195.3415	168.9688	144.2825	119.6087	104.4705	89.9665	76.5046	62.1291	50.9602	41.5598	32.9809	25.177	20.3023	14.0973	7.7787	3.7781	2.4397	0.3525	0	0	0	0	0	0	0	0	0
458	630.0221	629.4179	572.6199	532.951	506.1825	461.6168	418.1961	389.5536	366.1262	343.6312	335.1564	329.3254	341.6274	351.4405	362.6454	373.0231	381.4266	388.6678	384.172	373.9102	355.3446	330.2299	299.8203	272.4627	250.648	225.9246	198.6553	174.2847	149.0244	123.068	108.5559	93.1967	78.9154	64.674	55.28	43.7184	35.1653	27.8948	22.1164	16.2624	11.0038	4.9063	2.4675	0.7128	0	0	0	0	0	0	0	0	0
460	678.8487	618.5197	574.4321	552.7462	501.8921	464.7587	426.2779	389.975	359.73	342.2861	336.7395	330.0331	338.9069	347.5397	364.7937	372.6713	383.1669	389.2013	383.5739	371.054	356.8788	332.3528	305.17	275.1647	252.6065	228.0394	203.9391	178.2536	152.0467	128.6768	110.6218	95.0893	80.6602	67.2606	57.4456	46.481	38.4167	30.5817	22.8201	18.169	13.4039	7.2144	2.4953	1.0811	0	0	0	0	0	0	0	0	0
462	669.2919	628.6378	561.8722	536.8281	501.7856	460.8732	430.0658	393.3464	369.9392	348.2678	333.0021	336.0487	342.295	348.995	361.5857	374.7479	381.023	383.9111	384.0498	374.9477	358.8902	334.5336	302.4539	278.72	254.09	229.9632	208.6662	180.7854	154.5126	131.4416	112.8312	97.1083	82.517	69.9653	58.5314	49.8072	41.2751	32.769	25.7598	20.5666	15.2692	9.4427	2.5259	1.7957	0.8263	0	0	0	0	0	0	0	0
464	682.6291	608.2109	572.8515	546.1245	507.9083	458.7013	434.184	392.8212	377.5761	344.8828	335.7253	329.1635	339.8363	346.3768	360.5952	373.1547	379.6672	383.9348	384.5714	374.8036	356.5167	337.3181	310.2071	280.6202	255.9564	233.8169	213.7234	183.7637	160.9552	135.8906	115.062	99.1505	84.3953	72.716	60.8248	53.0488	43.2968	35.1937	28.3731	22.196	18.5166	12.3156	6.6325	2.868	1.6724	0	0	0	0	0	0	0	0
466	670.1826	616.0949	584.7852	534.9664	525.8598	475.6341	435.7611	393.7549	371.0791	343.8583	340.9857	336.4968	340.456	343.6563	356.1049	374.4643	379.8552	385.4538	380.4478	374.5003	361.0682	336.865	306.6967	278.1479	259.7929	236.4857	210.4494	185.5289	159.3495	137.8291	117.3503	101.2462	87.3512	74.8374	63.1758	55.9639	45.8978	38.4188	30.8718	25.0866	19.279	15.0456	9.462	3.9663	2.5388	0.6259	0	0	0	0	0	0	0
468	657.4676	637.153	567.9998	547.7224	508.334	473.1608	431.3478	392.3762	367.9986	347.0178	338.8255	339.9115	338.5676	343.9313	350.9975	368.0598	372.9887	381.9477	378.7167	371.1793	357.8895	333.8638	305.5016	278.2962	261.2175	237.6524	214.9449	188.4381	165.1636	141.0994	120.4155	103.3952	90.3818	75.5982	65.5858	57.171	48.2883	40.8919	33.304	27.0375	21.3683	17.0548	11.4803	5.0916	3.1811	1.2672	0	0	0	0	0	0	0
470	644.2654	588.6722	571.5324	539.5086	511.7416	471.023	429.0014	394.0214	367.9984	353.5595	337.3075	335.3824	336.4508	343.4042	354.6538	362.7093	372.1408	375.5876	374.0794	367.6352	353.1577	331.4117	305.7583	281.51	259.7869	239.9446	218.2597	191.1925	164.4714	144.1188	125.2934	105.5666	92.0332	76.3553	68.036	58.9815	51.1572	42.2316	35.3477	28.304	23.3654	18.5393	14.272	8.3313	3.8381	1.9238	0	0	0	0	0	0	0
472	632.1403	594.0426	559.8061	526.5274	512.5317	467.4404	430.0884	402.3314	373.5861	341.7131	332.444	332.0489	335.6816	338.5702	350.029	359.9337	365.616	374.8283	370.9019	365.8984	351.4604	329.1399	306.4552	278.1387	260.7397	238.7533	216.2542	194.8672	168.8404	147.4116	126.243	108.0173	93.1971	79.1218	70.5099	60.9635	52.0952	45.3316	37.7578	30.9753	24.513	21.0736	15.6147	11.0072	4.5206	2.9595	1.1945	0	0	0	0	0	0
474	619.4251	573.0911	559.7295	521.302	503.7419	463.6616	431.0566	400.5403	367.5955	348.7758	336.2629	327.8418	333.1467	332.3121	345.95	358.2015	362.6597	367.3211	364.9571	359.0569	349.8631	327.6088	304.7645	280.8696	260.6709	239.7293	216.2118	191.5987	171.3476	147.4087	128.88	110.2075	94.3567	81.9363	72.6534	62.978	54.9773	46.8399	40.8241	33.2888	25.8482	22.3546	17.1895	13.6007	7.8768	4.3867	2.4228	0	0	0	0	0	0
476	605.5471	566.048	544.6196	522.6296	502.93	464.6433	432.5423	390.1623	364.9099	338.9413	331.6058	321.9145	325.1518	332.3584	339.9164	346.5218	355.5277	357.6651	365.2953	360.9412	343.6292	324.9346	301.4045	278.7974	263.0909	238.386	217.2676	193.907	170.833	149.8152	131.8769	111.6297	95.4245	84.3456	74.761	64.9656	54.8845	49.3772	41.1267	35.4534	28.3685	23.4054	18.6293	15.3131	11.2802	5.8473	3.6816	0.8759	0	0	0	0	0
478	590.574	558.1121	547.2943	510.9148	502.4108	452.0479	428.807	393.2775	364.3975	342.0392	331.7237	326.0796	320.9712	325.4203	336.0273	348.5358	351.1218	359.7974	359.6867	349.2365	339.2133	321.8136	300.5675	278.984	257.3364	240.1394	216.343	197.2026	170.3098	151.9704	131.3629	113.997	96.4009	86.3024	76.3885	66.258	56.8298	51.5306	44.0363	37.1945	29.895	25.5649	21.1239	16.9565	12.2642	7.3375	4.5415	1.7727	0	0	0	0	0
480	575.1064	549.8346	546.1539	522.4584	493.0748	456.6637	432.9368	390.4588	371.4534	346.1102	324.2358	322.7992	323.7589	323.293	333.3272	338.9936	350.5744	350.6938	353.6748	346.2712	337.1038	317.5579	299.3099	275.645	258.1337	238.3893	219.4305	196.0356	172.7704	151.0521	134.2084	115.6878	100.264	87.6174	77.5877	67.3648	58.806	52.9999	44.7497	38.5757	32.2212	26.3831	22.7212	18.9573	14.9906	10.3364	5.4206	2.6904	0	0	0	0	0
482	557.9492	540.0579	536.3819	516.4866	490.844	460.987	426.579	392.5281	361.0194	339.1619	325.0075	319.6782	313.0202	321.4539	327.9985	333.9412	344.8962	348.692	351.8692	342.5572	331.0536	316.3004	296.3413	272.8736	258.9856	237.2578	220.5735	196.4745	172.871	152.4121	134.1558	117.6671	102.5739	88.7552	78.6306	68.3911	60.687	53.8909	47.7283	39.2339	34.1477	28.745	23.6795	21.2244	16.2973	11.7854	6.3061	3.673	1.1125	0	0	0	0
484	540.404	530.008	547.7046	518.8259	497.1464	449.6078	416.4465	385.2414	365.9622	332.9357	325.7517	320.6218	315.0041	316.3501	324.5955	329.8852	339.9155	341.9329	343.7091	335.9288	327.2484	312.8898	290.737	270.7293	259.0756	237.0511	216.2575	193.3207	173.0623	154.2768	135.6632	119.9728	105.7802	89.8989	79.7329	69.4247	62.5934	54.9056	47.8559	40.5278	35.29	29.41	25.1621	22.6593	17.9761	13.9483	9.7649	4.7258	2.2462	0	0	0	0
486	522.3679	519.5813	531.1122	493.7166	478.0085	454.9146	412.6297	390.1096	364.365	338.0321	317.561	313.7959	312.9285	309.9916	315.3603	327.4982	335.6498	337.2957	338.2969	334.9977	323.9569	307.2266	288.0617	266.3509	254.6528	236.6485	215.7832	194.6958	174.8562	153.8258	137.9503	119.2032	107.497	91.0303	80.8531	71.4025	63.9979	55.919	50.2124	44.5939	37.2234	30.8543	26.5151	22.9374	19.6291	15.8275	10.8192	5.7966	3.4005	0.6693	0	0	0
488	503.8583	508.7887	514.0619	503.794	474.1634	451.5923	419.3561	388.6133	361.0943	329.9677	322.0159	314.4114	309.608	307.1095	320.2622	319.5632	326.8817	329.2002	331.9197	325.8374	319.466	304.7401	285.0326	267.2819	253.4737	235.9578	215.6988	195.0761	174.4389	154.9114	136.9461	122.2773	109.1468	94.8891	81.9645	73.3909	64.3663	56.9308	51.9162	45.6881	39.009	32.919	27.1843	24.782	20.2922	17.0768	12.6328	6.8849	3.8583	1.3505	0	0	0
490	484.9886	497.739	496.6681	496.5901	479.6771	445.8987	415.9132	384.6755	350.424	329.4979	310.9651	307.771	305.9561	304.017	307.0614	311.8419	320.8881	326.4205	329.7576	326.7136	312.3223	299.485	279.6912	264.5891	249.3391	233.7714	215.8807	195.64	171.9754	156.6941	136.892	121.5295	108.1044	95.4852	83.0828	74.3587	64.7311	57.9517	50.9402	45.701	40.4813	34.4685	28.8312	25.1313	23.0574	18.938	14.7025	10.0229	4.3237	2.0437	0	0	0
492	466.2173	482.6983	479.4025	475.2232	466.8488	435.0855	398.8272	378.6263	353.4537	328.775	314.8548	305.3846	300.8483	298.4353	302.0377	310.3522	316.1589	317.8765	318.8351	317.8635	310.2949	294.7703	279.4975	261.4304	247.6943	233.4649	214.5254	190.8399	173.4029	154.8831	137.2177	121.634	111.1433	96.4322	84.2886	74.8766	65.8812	59.0378	52.0529	48.2374	41.9081	35.697	30.6485	26.3836	23.5056	19.6285	15.6624	11.2312	4.8012	2.8198	0.8819	0	0
494	447.0447	463.0683	461.7542	472.6892	463.9915	435.857	406.2659	380.7128	352.605	325.8459	310.0068	301.0172	297.9583	294.9597	295.3873	305.6085	310.2908	314.0564	317.5707	309.3166	305.4858	292.0385	273.3404	257.3186	243.4986	230.527	212.663	191.9365	174.2934	154.7354	138.1406	121.1843	111.4029	98.9666	86.3095	75.3905	67.0415	59.7204	53.1777	48.1228	42.9625	36.7498	33.1899	26.5049	24.0391	20.2467	16.9477	12.3312	8.0497	3.6796	1.7807	0	0
496	427.3412	442.8934	461.7533	459.509	440.7812	425.2886	397.1392	374.1993	343.7521	323.3981	303.8715	298.0417	291.3171	291.2747	294.2271	298.9132	303.6765	307.0822	306.7054	301.3472	297.3125	285.5066	273.731	255.5189	241.9315	227.6319	211.3899	191.1686	172.7799	156.2902	139.6794	121.9626	111.913	99.2048	87.7245	75.8775	67.9833	60.1782	54.298	48.7464	43.4251	38.2508	34.0092	28.5056	25.0462	21.4346	17.5658	14.5665	8.3602	4.5539	2.6958	0.5558	0
498	407.1329	445.9846	443.6686	445.8953	457.794	417.3645	403.7197	366.4615	337.8023	313.7125	303.1209	296.0263	288.2858	285.5205	289.8827	291.3471	293.4097	299.5272	302.087	298.5867	292.4165	280.7665	264.3623	250.1754	241.141	226.4963	208.6626	191.3542	168.3577	153.829	138.5408	120.7626	109.9191	99.5477	87.8112	76.3376	68.4909	60.6162	55.4133	48.9725	45.2015	39.8998	34.6827	29.9539	25.2806	22.9357	19.2278	16.2009	10.0649	5.442	3.1208	1.1215	0
500	413.9476	425.5671	425.2425	431.9979	448.3517	409.563	387.6054	363.6986	338.074	310.3622	302.4905	288.455	287.0054	280.553	279.3534	285.3532	289.6308	295.7359	292.4861	292.5522	285.2287	277.1069	259.771	247.558	234.2315	222.6058	208.7064	188.2775	170.7883	150.1909	136.4154	122.2201	109.0057	100.2365	89.2123	76.6412	68.997	61.788	55.9691	49.195	45.7271	41.1292	34.4273	31.6306	25.8916	23.4581	20.8294	16.1069	11.9247	8.4185	3.5528	1.697	0
502	419.3628	404.6638	407.8562	417.6906	425.0749	403.3315	383.1868	357.7055	321.6963	310.5002	289.313	284.576	278.7805	269.9357	275.2359	277.5376	283.0895	286.4664	286.5229	286.9136	278.3909	269.1359	252.9294	241.3869	230.0816	220.9449	203.7839	186.0916	167.2018	150.5787	135.4525	119.3216	110.8285	100.4749	90.2119	78.5788	69.4807	62.9521	55.358	49.3992	45.7676	41.0127	36.9243	32.4122	26.1023	23.3005	20.4412	17.5073	13.2421	9.8796	3.9907	2.4867	1.2843
504	408.6207	383.4164	391.6764	403.1142	412.8318	406.8825	379.2222	343.3726	324.9813	306.6081	288.7686	280.5877	269.9628	274.9714	272.2177	273.7295	274.89	281.7189	277.4167	279.6072	269.9217	260.5238	250.1801	235.6274	225.9362	216.9733	198.4651	182.3587	166.4706	149.0101	132.7889	120.0164	110.059	98.607	89.9427	79.8593	69.9629	62.9671	54.729	49.6001	44.4532	41.9716	36.7427	33.0467	28.1586	23.4287	21.5326	17.7695	14.4063	10.9428	5.9647	3.4962	2.5901
506	409.9241	362.2629	375.662	394.7908	399.6706	393.4223	373.0644	344.213	322.1303	295.0225	283.5874	271.9529	263.2416	260.1735	263.6781	264.46	265.7227	267.6659	270.0555	270.2216	262.1575	254.2033	243.3185	232.7077	222.6849	212.4675	198.336	180.9067	163.0583	148.107	132.6588	119.2329	108.8454	98.7266	89.0095	80.2724	70.5265	62.4625	55.0319	49.8559	44.6474	41.532	37.5385	33.356	29.6508	24.6559	21.6188	18.6722	14.8371	11.7646	8.2423	4.5273	3.922
508	352.081	341.1156	371.8688	383.3529	386.675	374.5378	356.0436	338.4752	308.7579	288.857	274.6643	268.8918	265.5314	257.1794	254.4673	258.2563	260.361	263.6436	265.1846	263.541	258.6599	250.7016	236.4091	227.704	218.4733	207.8989	195.4775	178.5496	160.3981	145.4415	131.6362	118.1187	108.6321	96.9255	89.38	80.0696	70.5568	62.0098	55.3954	49.8682	44.8895	41.8928	37.9769	34.6936	31.2862	25.5298	21.7786	19.1755	16.5719	12.5003	9.1365	5.5836	5.2846
510	345.8895	342.2021	358.6786	371.6088	373.3451	379.1566	349.1269	337.4342	313.6994	283.8232	274.7083	267.858	253.5161	251.4644	251.8836	252.9773	251.8199	255.0203	256.1742	255.2959	250.5085	244.9349	232.6641	221.9564	214.7815	205.1783	192.7763	173.521	159.3013	142.5962	129.3362	115.704	107.7932	96.5478	88.2103	80.643	70.6621	61.534	55.6029	49.7194	45.127	41.2865	39.0653	35.4971	32.237	26.7685	21.4507	19.66	17.5427	13.8059	10.0982	6.8321	6.6748
512	339.4556	351.1851	345.1177	357.9872	359.6364	358.4355	348.2581	318.0202	304.1486	279.9766	267.9183	256.52	248.3363	244.1563	246.2784	248.8854	249.7668	248.9336	250.0663	245.5703	244.8454	236.8428	227.5237	216.5629	206.6865	201.215	186.1808	170.7191	154.7017	140.3521	127.7821	115.6894	106.6999	95.6706	86.0851	78.73	70.6331	61.0273	55.4896	49.5509	45.3539	41.1372	40.0216	36.1297	31.0532	28.096	21.485	18.767	17.1606	14.4989	10.217	8.1103	8.0918
514	332.8266	322.5586	331.2365	342.5035	345.6018	349.6564	341.6251	317.759	295.4932	271.3939	258.6302	249.7145	242.3235	239.5091	236.9286	238.267	237.344	244.2305	242.0165	239.9541	236.3802	229.1398	218.2703	211.5028	204.06	196.0134	182.1096	166.8455	149.9677	138.8019	124.8273	113.4776	102.4784	94.3829	87.1313	77.9888	69.9597	63.312	55.3627	49.8136	45.3052	40.9764	39.6714	36.1916	32.4884	28.7501	23.2782	17.8047	17.566	15.0923	11.2784	9.4097	9.3882
516	326.2579	349.2132	317.2844	326.9291	342.6106	337.8533	330.5409	303.0526	291.6369	266.9256	261.6251	248.6432	236.9416	235.7744	227.3848	228.435	231.3533	235.6065	237.1496	235.0544	232.7519	227.2307	215.5701	205.3171	198.0832	190.9425	181.9565	165.5912	148.6798	135.1039	125.4006	112.6331	103.2448	94.5715	85.2336	77.7726	70.5442	64.6602	55.2646	50.1101	44.7334	40.8355	38.2752	36.0739	33.161	29.1045	23.7958	18.9256	17.0775	15.6402	12.5905	9.976	9.9533
518	319.7259	305.3012	303.2219	330.7924	328.8523	325.9912	333.943	300.4398	283.6749	265.5401	252.1942	246.6195	231.6704	226.6813	224.3684	222.7973	226.3337	225.8583	231.6737	228.9442	224.1183	219.1364	209.9051	200.8886	196.0937	186.7463	176.5557	162.9313	147.5804	133.5411	121.1021	108.8895	101.0093	92.4098	84.5717	76.6256	70.7348	63.1559	55.1935	49.8808	44.1727	40.7131	37.5575	36.4788	33.6109	29.4264	25.9945	17.7871	14.9276	15.9812	13.4921	10.1762	10.153
520	312.9684	250.987	314.9389	315.2302	314.7229	313.7948	321.926	295.6667	275.0614	258.9968	246.1151	235.1379	225.1931	220.0649	218.2581	216.5746	221.3324	220.2548	221.6183	224.3836	216.7667	213.3976	200.6119	195.4462	189.0746	185.3581	172.1902	157.7389	144.8521	131.8842	120.3879	105.7837	97.7389	90.4268	83.3153	77.1821	69.5728	62.6752	55.1067	49.3511	44.0748	40.5775	37.52	35.5677	33.1168	28.6308	26.0307	17.8917	14.0857	15.9666	13.6026	10.2806	10.2572
522	305.966	248.8029	299.6033	299.253	300.529	301.2455	306.9572	291.3087	274.7447	246.9814	238.8566	227.7806	222.0017	212.2065	212.8269	213.7552	212.9867	212.892	216.3774	217.6347	210.1113	208.6336	196.3966	189.2171	184.9364	179.5327	168.214	155.1321	140.2535	130.8444	117.9554	107.043	98.4889	89.5575	83.3121	75.8733	68.7337	62.657	56.1854	48.794	43.9608	40.3782	37.4699	35.3118	33.6379	30.1965	26.7432	20.6245	13.3292	15.4051	13.9541	11.6779	11.6513
524	298.7407	246.5102	292.5788	282.8857	286.304	288.3675	295.8559	276.737	268.2544	246.1539	232.709	227.5297	215.4812	209.6961	205.5045	205.909	203.3032	211.2742	210.2996	208.4523	205.8793	199.7176	190.6858	186.8408	179.6567	173.2483	162.3882	150.0093	139.2082	126.6594	114.2557	105.5388	96.2491	87.8873	81.4485	74.7401	67.4985	61.1395	55.4041	48.2128	43.8094	40.1405	37.4096	35.0328	33.4493	29.9069	26.3983	22.0955	14.0035	13.6477	14.3982	11.7722	11.7454
526	291.493	244.276	276.1086	266.3135	271.9147	279.2196	282.3739	268.8509	256.8219	239.2224	231.2672	223.7228	206.6423	205.6949	201.9792	201.8818	201.0201	201.1497	203.4042	202.6036	199.0418	194.5178	188.4278	183.1762	174.7636	171.08	158.9109	148.2289	134.823	124.0052	112.2897	101.3924	93.5957	86.4373	78.9591	73.4513	67.1353	60.1526	55.8612	47.6397	43.6247	39.9151	37.3643	34.6886	33.2394	29.7235	26.1886	22.9112	14.7963	11.7384	14.1686	12.495	12.4665
528	284.2014	242.0901	280.5979	249.4977	264.8235	267.7308	268.7151	265.2037	251.8215	228.2428	223.6307	215.8791	206.9233	197.5584	193.2026	195.0584	198.6525	197.9659	197.6836	198.1798	193.9967	186.5553	183.7697	174.1328	170.7854	166.0746	155.3919	144.3155	133.5942	121.8003	111.4985	101.7089	93.1096	85.3379	78.2492	72.6609	64.8089	60.5974	55.2802	49.3476	43.4532	39.9173	37.1152	34.3504	32.8953	29.6258	26.3749	23.5305	16.3853	10.479	12.8532	12.9234	12.8939
530	276.6593	239.7819	229.944	244.7142	251.7255	255.9066	254.6764	257.3497	247.6016	221.418	216.6836	202.2462	199.4899	191.7433	189.1332	186.4932	190.3017	188.6422	191.4949	190.2812	190.3852	183.1515	177.9274	170.5973	168.2482	162.0354	153.2886	142.3569	129.2802	119.1199	108.5495	98.7341	90.6132	83.514	76.3073	70.1067	66.0159	58.9322	54.8385	48.5343	43.2653	39.9082	36.4086	33.9943	31.6786	30.7856	26.9492	23.6701	18.8494	10.3043	10.9125	12.7574	12.7284
532	268.9083	237.3875	172.568	245.2302	238.3051	242.148	240.2964	245.6255	236.1248	223.8508	211.5365	199.9384	196.4983	185.0329	185.8224	184.452	181.9843	185.9912	186.1622	184.2819	182.6595	179.3245	173.4014	166.8705	162.6273	158.401	150.424	139.3351	125.2092	116.5709	106.2832	96.1941	89.6576	81.9149	76.091	67.919	63.2321	59.3449	55.1447	48.3691	43.067	39.4497	35.6804	33.6252	31.4877	28.8499	26.6195	23.0067	18.8033	11.37	8.3524	12.0424	12.015
534	260.9049	234.8696	184.4683	231.9719	224.5235	226.3678	225.5354	243.0501	226.565	218.8103	205.8338	198.5583	188.0884	180.7029	178.84	177.3233	179.8542	182.0073	180.0928	180.942	177.251	171.6515	167.1517	160.3033	157.5006	153.793	144.447	134.4607	123.7127	114.8349	103.0662	94.889	88.7836	78.7701	73.8306	67.4367	62.1614	58.3642	54.1954	45.9646	42.8519	38.7449	35.3254	33.2378	30.9513	29.0304	26.433	23.8613	19.5593	13.1238	6.4641	11.8442	11.8173
536	252.7814	232.3489	196.7192	238.3476	210.4917	210.2985	227.4158	231.9867	224.3686	204.9232	202.0807	192.1053	185.7561	177.4025	173.6976	174.7351	171.2078	171.143	173.0822	173.1711	170.9766	166.8335	163.0869	158.1377	151.4892	149.1957	141.7864	132.0606	119.7543	111.4839	103.0729	91.0766	84.9126	79.3295	72.1517	66.8418	61.6053	56.144	52.5113	47.3412	42.2145	38.0325	34.9703	32.7323	30.4096	28.7361	26.3303	23.7896	20.0149	14.9191	6.6143	9.0028	8.9823
538	244.5209	206.7656	209.3377	229.8746	196.1855	217.1521	216.1425	220.7167	219.0207	205.4068	195.1421	188.9745	178.1829	173.6576	170.9161	165.7287	167.7006	171.1397	167.3258	168.5913	166.3405	161.7671	159.4105	154.4929	152.8341	144.5524	136.796	127.3603	117.0919	108.8632	97.6367	88.8632	84.3777	76.5731	71.2404	65.3322	59.8075	55.8382	51.9896	46.222	40.9363	37.3106	34.5554	32.1622	29.8609	27.5118	26.4565	23.8373	20.2474	16.5823	7.2065	6.4547	6.44
540	235.9869	220.5402	222.2287	223.0225	208.8558	204.717	204.5379	209.1139	211.9723	199.6305	186.159	187.8921	174.4487	167.2914	169.7749	165.2057	161.5321	163.6103	158.7183	159.5441	162.2975	158.71	152.4378	150.3951	147.9547	140.1758	133.2188	125.3124	112.4384	104.9173	96.5661	87.1106	83.2301	74.5766	70.0006	64.736	59.4426	54.8349	50.982	45.3077	41.0131	36.5592	34.001	31.5679	29.2894	26.9203	26.0502	23.4928	20.1664	17.9152	9.9755	3.4627	3.4548
542	227.7176	220.45	208.9513	198.6454	199.4299	192.3867	192.8447	197.6454	210.1029	193.2611	184.8623	176.1498	169.8762	162.868	161.5764	160.2823	158.2405	160.2416	157.7719	158.7539	156.9805	154.379	147.5761	146.4093	144.1893	139.2693	131.8616	120.6252	111.8779	103.4423	95.9445	85.8635	81.4218	73.968	68.2691	61.7073	58.7545	54.7435	49.3163	45.8146	41.6655	36.225	33.5005	31.0824	28.761	26.3676	25.5567	23.0748	20.0197	17.1112	12.8137	2.8622	2.8557
544	253.1176	198.8298	147.7964	104.4934	192.1173	179.6379	180.5333	185.7783	199.3967	195.2761	179.7895	174.3417	166.6602	159.3614	158.2287	155.3411	156.9411	155.7943	154.4724	153.9583	152.2054	150.7173	143.9181	140.2882	136.8393	133.7791	126.1324	119.1201	108.6859	101.3639	92.0621	87.0089	78.6735	71.8594	67.0384	62.502	56.9084	51.9449	48.4662	43.0817	40.4106	37.397	32.9716	30.5697	28.2037	25.7877	23.8588	22.3927	19.2941	17.8907	14.1964	4.3394	4.3295
546	244.2261	193.4666	145.5512	123.0264	203.0516	166.3807	167.7233	182.1694	189.781	182.8264	176.0611	172.9702	157.6364	153.4737	154.449	151.1062	149.2849	150.5229	145.878	149.9035	148.3432	145.8754	140.2038	137.4321	132.3177	132.5788	124.3202	116.019	105.2983	98.8709	91.07	80.2615	75.5775	70.4058	64.7451	61.3638	56.1369	51.9768	46.705	45.0237	40.2858	36.3745	32.3963	30.012	27.6038	25.167	22.8823	22.394	20.1408	17.528	14.4014	6.2087	6.1946
548	279.6608	194.6968	146.2645	141.9887	186.2896	152.6437	171.3616	173.1216	179.7487	176.9161	168.9555	162.6562	159.959	149.1152	146.6406	145.9382	142.8403	147.5109	144.5946	139.7353	145.1449	139.4715	133.7906	134.3453	130.3245	131.1144	121.0195	112.1741	104.9243	95.943	88.178	79.9298	75.888	69.5368	63.6214	57.6859	54.2267	49.7997	46.3431	42.2252	38.0367	35.258	31.7765	29.4114	26.9821	24.5071	22.4633	22.5822	19.4211	18.0096	14.7185	9.8001	9.7778
550	261.1853	195.8945	157.112	161.4423	198.7311	164.5686	161.7145	163.7954	169.4134	172.4677	165.325	155.5844	151.6952	145.7188	142.0381	141.9057	135.4209	140.5712	140.6895	138.2627	137.7337	135.4539	130.9617	128.6426	125.8034	123.7312	118.8506	110.1464	101.4458	92.37	86.2994	78.1347	72.0622	67.7963	61.6091	57.8989	51.9308	48.9394	45.7298	42.4687	38.2202	34.9534	31.6399	28.7858	26.3356	23.8635	22.0263	20.6395	19.914	17.4504	14.6896	11.5301	11.5038
552	258.0893	197.62	179.0293	181.9068	183.9281	160.5867	152.2143	154.1605	159.2272	166.3093	160.7925	153.8928	147.8389	141.4381	136.4805	134.7898	137.175	135.5137	135.8685	134.1955	133.9368	130.9261	125.9955	124.8148	123.8303	117.4849	114.6561	108.737	99.1044	90.1556	82.3091	77.7612	70.6524	66.0233	60.3273	55.94	52.4103	48.8952	44.0464	41.8674	38.3774	34.5066	30.257	28.2143	25.7574	23.2822	21.6318	19.9497	18.8599	17.5216	14.8186	12.3323	12.3042
554	225.3074	199.3058	178.5758	160.5829	144.9012	158.6525	142.3631	143.6948	148.6675	157.5305	155.6981	148.7091	144.5921	136.0388	133.8202	132.1932	130.1056	132.279	130.777	131.5583	129.7152	127.2831	123.1837	121.885	119.413	115.717	111.0605	103.3873	94.3402	90.642	80.6905	74.2984	68.706	63.43	60.0699	54.4253	50.9496	48.0807	44.2649	40.7755	37.3246	33.4333	30.2654	27.6121	25.1916	22.6722	21.2151	19.3137	18.4126	16.8688	15.3344	13.4453	13.4146
556	237.8542	217.523	151.2598	95.2553	47.6283	159.0903	132.2111	132.9112	142.3063	149.4415	149.8633	143.4148	137.9956	132.0403	128.84	128.652	126.3734	127.9485	127.3633	125.6763	124.5455	125.0987	118.5984	116.9516	116.1015	113.0548	107.0034	102.3961	92.7167	85.9663	79.6033	72.2644	68.4247	61.9385	57.6193	54.3745	49.5116	45.1031	42.7885	39.8317	36.8016	33.5021	31.0254	27.8339	24.6065	22.2748	20.7553	18.6567	17.4851	17.1575	14.4862	13.0446	13.0149
558	258.6423	244.7966	166.988	101.3502	68.2796	156.7927	121.746	128.8618	133.6049	141.0962	144.9758	139.6742	130.2687	126.6523	123.6505	122.7638	123.8964	123.4195	120.4154	122.7004	121.5589	116.4783	115.214	112.9239	112.1911	108.4834	104.7832	98.2331	89.2784	82.775	76.9535	69.8103	66.4574	61.3265	54.9321	52.2992	47.839	43.7667	41.2397	37.5958	34.559	32.6603	31.0699	28.4068	24.0008	21.8629	20.2212	17.9774	16.857	17.7962	15.5139	13.376	13.3456
560	244.8313	221.1848	166.2328	99.8676	89.5958	145.2594	119.8937	119.9127	124.5827	132.4366	139.2042	133.9824	130.8083	124.7775	118.1016	117.1155	121.0358	118.3387	119.4443	119.2575	116.2345	115.4648	111.4689	111.0301	107.341	105.0972	99.8066	95.746	87.5213	79.5262	74.4607	66.9037	63.3641	59.3835	54.1516	50.7176	46.4367	43.4096	39.5546	38.576	34.4724	32.218	29.3122	26.6066	23.3653	21.3701	19.6613	17.2689	14.7274	16.3828	14.3732	12.5282	12.4997
562	235.1177	205.6481	165.3707	110.9901	111.5775	148.8408	120.8343	110.6429	115.4965	123.4583	134.3999	129.525	123.9218	118.7241	114.6998	113.6909	115.3789	113.9414	113.8208	114.2033	114.2652	108.5934	106.8876	107.1222	104.6076	101.7394	97.3534	92.3445	86.21	77.7742	72.6065	66.5709	62.2888	58.4392	53.4968	49.0834	45.7698	42.8378	39.3519	35.8824	33.1873	31.3288	27.8217	26.2226	22.6987	20.8222	18.9633	16.5303	14.6693	15.8924	14.4204	12.5229	12.4943
564	220.8341	186.5198	164.4097	135.3416	134.2338	132.329	134.7301	101.0599	106.3643	114.169	128.9725	123.4426	120.1109	115.3468	110.1771	112.0964	107.2712	113.4653	108.316	109.5382	109.3904	106.9797	102.071	101.7295	102.017	97.6015	93.3981	86.8037	81.6582	75.9512	70.1156	65.275	59.9013	55.8265	51.2775	47.6734	44.4313	40.8771	38.6546	35.1086	33.035	30.3368	27.8289	25.8223	24.6406	20.249	18.2362	16.1959	14.603	14.3479	13.5008	12.5517	12.5231
566	218.7555	187.6872	163.45	141.5385	122.5798	105.5477	122.1152	91.2206	96.9892	114.1801	120.9178	122.1947	116.9166	110.2322	111.6166	103.9448	103.7256	106.1966	106.5622	105.2826	105.5884	103.4023	99.2236	98.4572	98.072	95.2958	92.1818	84.7799	81.5897	73.7692	68.9221	62.445	58.7554	54.0208	50.6214	46.5018	43.5404	40.441	37.557	35.5146	31.388	30.0598	27.8348	25.6989	23.712	19.6622	17.7096	16.0745	14.5374	13.1703	13.4345	12.8162	12.787
568	183.9533	210.0602	193.3938	132.7388	81.1187	36.7244	126.5307	81.1055	102.2009	105.4551	112.6422	119.6258	109.0304	104.932	106.0039	103.9552	103.4183	101.8983	103.8398	101.3012	101.1193	99.9424	97.9756	95.2591	91.6415	91.1633	89.7085	81.7621	74.0909	70.3816	65.6455	60.7157	55.6035	52.9906	48.0068	45.3622	41.8255	39.581	34.5258	34.2747	29.7704	28.1858	26.3366	24.5945	21.4488	19.0604	17.6141	15.9518	14.472	12.8905	13.3699	11.7021	11.6755
570	200.0162	187.0429	179.4636	125.4878	79.4961	55.2254	122.2598	91.4628	93.3741	96.4206	104.0664	114.4096	106.2026	101.7209	100.3012	100.1443	98.878	100.4958	96.7079	98.5889	95.0989	95.2776	93.5863	90.4923	90.1347	89.938	87.0515	80.6333	76.4034	68.8373	61.9758	58.1608	54.8565	50.1945	47.6781	42.9758	40.7184	38.8707	34.4388	32.2348	29.6925	27.8121	25.7608	24.6652	22.4692	20.0173	17.5073	15.899	14.3519	12.5959	11.9925	12.507	12.4785
572	209.0146	184.9242	183.8423	130.7694	83.7252	74.4723	124.6971	100.149	84.4265	87.67	95.3956	103.8154	103.4846	99.6204	98.4502	95.3959	96.0864	95.0904	94.7844	93.7795	93.9373	93.1129	91.5845	88.9663	88.0711	87.0067	83.0364	77.2605	71.5955	66.6534	63.468	56.0517	53.0667	49.0809	45.4174	41.5789	40.2442	36.2104	34.3573	31.8439	29.1692	26.9051	24.0508	24.8804	21.2197	19.483	17.4263	15.8712	14.1589	12.3129	11.3149	11.9944	11.967
574	190.7907	175.6454	173.8041	136.1598	96.7067	94.3895	122.6798	91.4764	75.1336	78.9907	86.3818	102.9815	102.4618	96.7951	93.4802	94.0817	92.2663	91.9268	90.0226	91.1109	89.6774	89.1	87.851	87.3422	84.8489	83.3677	78.5618	73.9684	68.469	64.4663	58.4198	55.4306	51.7442	47.1942	44.96	40.6587	39.6328	35.8773	33.7955	31.0281	28.9483	27.3213	24.7417	23.0151	20.3563	19.3443	17.3324	15.7383	13.9511	12.0129	10.0298	11.113	11.0877
576	187.139	168.6039	182.5705	141.6571	118.9176	114.9806	113.4631	101.339	65.4956	69.9831	90.7198	97.5996	99.6314	93.7568	89.9373	89.4722	90.6957	87.9574	87.4356	89.1693	87.3811	86.174	81.6623	82.9791	82.3862	77.5442	76.5635	71.643	67.3153	64.1332	57.4693	53.5481	49.3349	45.8694	42.2525	41.0335	36.8645	34.0214	32.0268	28.8034	27.802	26.4719	24.1859	23.5576	20.6558	19.4791	17.2254	15.5435	13.6677	11.696	9.7743	10.6459	10.6216
578	188.5236	178.9374	182.2552	147.2615	124.4234	104.0809	88.1105	90.6744	55.5144	79.2002	84.071	91.9887	95.8267	90.328	89.4697	88.0424	87.5186	87.2028	87.0744	85.5783	84.1955	83.9452	81.4166	79.4389	77.4758	78.1151	75.4071	70.7987	64.2576	59.8839	56.279	50.8533	48.3783	43.4386	41.7714	37.7676	36.7348	32.2492	32.2522	28.1323	28.0755	25.4452	23.2958	21.887	20.021	18.3344	16.8659	15.3336	13.3674	11.342	9.5048	9.9169	9.8943
580	188.0633	171.9346	183.4211	140.6663	100.9528	66.4741	37.6276	94.9728	69.6077	72.5769	77.1674	86.1508	88.3271	86.3345	82.6009	85.8726	80.7965	81.1678	81.9966	82.772	80.6627	79.2912	79.6984	75.8249	77.2641	74.6682	72.6699	67.6695	62.996	57.6532	54.6293	49.6931	46.8858	43.2107	41.0297	36.4343	34.4262	33.9735	30.4283	28.1846	26.8169	23.9195	22.81	21.2319	19.8351	18.0857	17.1002	15.1089	13.0401	10.9604	9.2217	8.7549	8.735
582	170.2343	147.3658	146.4872	140.1439	100.7664	66.5734	49.1236	97.8414	72.2109	65.7296	70.6748	80.1097	88.5246	80.3344	81.2185	77.633	79.4793	81.2688	80.5833	78.6258	79.6284	79.7176	77.3759	75.6271	74.0211	72.5383	68.9354	65.6893	62.2376	56.8597	52.817	48.2864	45.2762	41.6992	39.4413	36.5534	33.7167	32.902	28.7877	26.2739	25.007	24.0771	21.7744	21.1527	19.8175	17.4676	16.1813	14.8736	12.6789	10.564	8.9274	7.2997	7.283
584	175.9966	164.5046	151.9803	147.1975	102.0688	67.3527	60.983	97.3151	76.3896	58.6349	64.5972	73.8384	81.005	80.8251	81.9987	79.3982	77.0068	76.9823	75.0162	77.1696	77.3019	77.2108	73.4703	73.195	71.4837	70.6127	67.5908	62.8516	57.7355	55.6563	52.058	46.5429	44.3299	40.3867	39.1093	36.3134	32.2126	31.301	27.3281	26.6024	24.4886	23.1937	21.4745	20.9052	19.4585	17.4804	15.6533	13.6124	12.2995	10.2814	8.619	6.2563	4.2339
586	165.3429	144.1581	139.2201	126.3469	103.3452	74.223	73.1958	101.7836	74.0372	51.2853	58.2908	70.7277	76.1934	79.6661	77.372	75.2378	76.7617	75.0881	72.1043	73.8778	72.5645	72.579	69.377	69.0906	67.559	70.6604	64.1957	61.6779	55.9632	53.5286	48.7085	44.6114	41.7922	40.1276	36.9288	34.0205	31.9226	30.0467	27.6733	25.751	24.9492	21.7986	20.0356	19.2323	18.3961	16.7914	16.4674	13.4218	11.9002	9.9831	8.233	5.176	2.4874
588	115.0917	133.1095	129.4919	124.4489	104.5958	87.4774	85.7581	86.6591	75.262	43.6854	59.4704	64.5649	71.1894	75.5663	71.6642	73.3063	74.6298	72.8766	72.5917	70.8361	69.1708	69.9916	68.6941	68.3159	66.0376	64.0096	64.0601	59.6834	55.1047	50.8951	47.7055	42.5857	41.0884	38.2124	35.6851	33.0795	30.8072	28.5476	28.5896	25.6018	23.2786	21.6046	19.7068	19.3146	17.4428	16.4153	15.7721	13.7106	11.4812	9.6377	7.7982	4.0596	0
590	134.8944	149.7288	139.8442	125.31	105.8373	90.9452	79.4892	71.2581	74.4687	48.9107	53.3533	58.1934	66.0067	70.233	68.5146	68.1722	68.9851	67.6637	67.0576	67.9169	67.2977	65.8668	63.877	63.9031	64.1076	63.4137	61.0263	58.0564	53.012	47.9504	46.5117	43.1737	41.1435	36.8424	33.9531	32.0098	30.2805	28.1849	25.9729	25.2642	22.7509	20.9153	19.7798	18.5452	17.8104	16.3496	14.8238	13.3639	11.0445	9.2134	7.0245	2.9079	0
592	163.4671	137.8029	142.0768	127.1595	108.9499	76.0458	48.7205	25.0599	69.9744	55.9041	47.2072	52.4387	60.8652	68.3003	68.1896	69.2381	67.3995	67.4371	64.7824	66.0291	64.9568	64.0582	63.8857	61.4853	62.7523	60.3352	58.402	55.626	51.8354	47.4818	43.7265	41.8286	37.5421	36.7391	32.9527	32.3404	29.2774	27.0534	24.5902	22.2855	21.0235	20.0215	18.3017	18.5211	16.3211	14.6539	13.5798	13.5568	11.3652	8.8042	5.9192	2.9009	0
594	200.7372	144.1327	133.6952	123.5221	131.3286	84.3909	49.3256	38.365	80.0499	53.1457	40.8112	47.0936	55.4998	67.8652	64.4391	65.1847	67.5571	64.5732	65.357	64.2432	63.9502	62.8393	63.9264	60.6977	59.326	58.6873	57.3223	54.6729	51.7383	47.9826	43.2364	40.6667	38.4276	35.2632	30.7769	30.3913	28.0424	26.6209	24.0201	23.2772	22.1218	19.6829	18.1934	17.9791	16.427	14.702	14.2827	12.8866	11.105	8.3743	5.4902	0	0
596	131.4232	144.7561	131.017	138.0634	115.3407	78.2334	60.8238	52.1701	75.5947	58.8379	34.1806	41.5489	56.4738	63.1555	59.8738	61.8883	61.9369	63.8064	60.6413	62.5929	62.017	59.728	58.5632	60.2241	56.4687	59.3514	55.4784	51.8028	47.3453	44.7432	40.5385	38.6468	36.6093	33.0857	30.9633	30.1654	27.6301	24.8428	23.6755	22.9434	21.4449	19.4436	17.5811	17.3638	16.3453	15.1069	14.0601	12.542	11.2018	7.9272	6.0096	0	0
598	166.3213	134.6169	115.027	127.3124	114.0246	88.0373	75.6718	66.4948	80.0527	56.0078	27.3064	43.9097	51.4983	58.2631	60.7758	60.2958	59.1874	60.2371	58.5127	60.2062	59.5131	57.5188	57.0429	56.1461	56.7642	56.7526	52.9022	50.4791	45.9825	44.4392	40.9953	36.4718	34.5325	32.9151	29.9889	28.2029	26.6107	24.594	23.0666	22.2368	21.0062	18.7606	17.4752	17.0231	15.7254	13.9971	14.1734	12.4272	10.7301	9.0106	0	0	0
600	159.1376	141.5986	120.8215	120.4744	121.9145	104.4801	91.0408	81.3253	74.8905	52.7158	30.9394	38.7499	46.3123	53.1586	60.0155	59.6515	58.0555	58.3782	57.3727	58.2919	57.086	56.9542	54.824	55.2837	52.9133	53.8046	50.7863	49.0384	46.0308	41.414	39.425	35.8983	34.1854	32.4339	29.1499	27.7161	26.8755	25.0905	22.3639	20.8372	19.7817	18.0628	16.672	15.3438	15.5816	13.654	13.4774	12.5618	10.5399	9.3471	0	0	0
