Description	Fen2-60																																																				
EEM type	"Dilution- & Scatter-corrected, Calibrated Data (ppb QSE)"																																																				
Scan date	10/1/2013 13:57																																																				
Excitation	240-500nm by 5nm																																																				
Emission	290-600nm by 2nm																																																				
Calibration	Michael_Fluoromax4_April08 (07-Apr-2008)																																																				
Slit settings	"5nm Excitation, 5nm Emission"																																																				
Dilution	5																																																				
Row 1	Excitation(nm)																																																				
Col 1	Emission(nm)																																																				
Data	Fluorescence(ppb QSE)																																																				
																																																					
	240	245	250	255	260	265	270	275	280	285	290	295	300	305	310	315	320	325	330	335	340	345	350	355	360	365	370	375	380	385	390	395	400	405	410	415	420	425	430	435	440	445	450	455	460	465	470	475	480	485	490	495	500
290	9.3246	4.0016	6.3813	9.4493	12.046	14.1817	16.2822	18.689	12.5979	6.4419	0	0	0	0	0	0	0	0	0	0	0	0	0	0	0	0	0	0	0	0	0	0	0	0	0	0	0	0	0	0	0	0	0	0	0	0	0	0	0	0	0	0	0
292	5.2827	2.5624	9.8841	11.1261	13.5633	15.5515	18.0079	20.7556	12.5438	6.2632	0.9318	0	0	0	0	0	0	0	0	0	0	0	0	0	0	0	0	0	0	0	0	0	0	0	0	0	0	0	0	0	0	0	0	0	0	0	0	0	0	0	0	0	0
294	11.639	8.0912	9.5226	12.7654	15.0456	17.8563	21.0661	22.7746	19.1883	5.8958	1.8436	0	0	0	0	0	0	0	0	0	0	0	0	0	0	0	0	0	0	0	0	0	0	0	0	0	0	0	0	0	0	0	0	0	0	0	0	0	0	0	0	0	0
296	11.1596	9.4525	12.203	14.3477	18.0222	21.0388	24.9408	24.7125	22.691	5.5276	2.7317	0	0	0	0	0	0	0	0	0	0	0	0	0	0	0	0	0	0	0	0	0	0	0	0	0	0	0	0	0	0	0	0	0	0	0	0	0	0	0	0	0	0
298	13.6905	9.0846	15.2212	18.9219	21.4062	24.108	28.6799	26.5599	22.5958	5.1598	1.7954	0	0	0	0	0	0	0	0	0	0	0	0	0	0	0	0	0	0	0	0	0	0	0	0	0	0	0	0	0	0	0	0	0	0	0	0	0	0	0	0	0	0
300	17.3204	12.6829	15.0652	20.0233	24.6935	28.032	31.4031	28.3473	22.4943	7.9488	0.8848	0	0	0	0	0	0	0	0	0	0	0	0	0	0	0	0	0	0	0	0	0	0	0	0	0	0	0	0	0	0	0	0	0	0	0	0	0	0	0	0	0	0
302	17.5113	17.3688	17.009	21.3002	28.3368	32.3598	33.6844	31.4688	22.7497	9.5995	0	0	0	0	0	0	0	0	0	0	0	0	0	0	0	0	0	0	0	0	0	0	0	0	0	0	0	0	0	0	0	0	0	0	0	0	0	0	0	0	0	0	0
304	23.0744	16.3075	20.3152	24.6255	29.1801	36.7115	35.9755	34.6053	23.0058	11.0758	0	0	0	0	0	0	0	0	0	0	0	0	0	0	0	0	0	0	0	0	0	0	0	0	0	0	0	0	0	0	0	0	0	0	0	0	0	0	0	0	0	0	0
306	19.0299	18.9395	17.0695	25.6667	31.867	41.0664	39.1928	36.2994	23.251	12.5516	0	0	0	0	0	0	0	0	0	0	0	0	0	0	0	0	0	0	0	0	0	0	0	0	0	0	0	0	0	0	0	0	0	0	0	0	0	0	0	0	0	0	0
308	22.492	18.488	17.7686	25.1967	33.7531	45.4182	42.4012	36.5399	25.7154	14.0248	0.2605	0	0	0	0	0	0	0	0	0	0	0	0	0	0	0	0	0	0	0	0	0	0	0	0	0	0	0	0	0	0	0	0	0	0	0	0	0	0	0	0	0	0
310	27.6515	20.2882	24.7897	27.8928	35.4029	42.837	45.619	36.7807	28.186	15.5009	3.0672	0	0	0	0	0	0	0	0	0	0	0	0	0	0	0	0	0	0	0	0	0	0	0	0	0	0	0	0	0	0	0	0	0	0	0	0	0	0	0	0	0	0
312	21.9447	31.9774	26.0684	25.5637	34.3081	45.2057	48.5483	39.0043	29.972	16.8772	5.846	0	0	0	0	0	0	0	0	0	0	0	0	0	0	0	0	0	0	0	0	0	0	0	0	0	0	0	0	0	0	0	0	0	0	0	0	0	0	0	0	0	0
314	28.2329	24.6613	24.5354	28.4318	34.603	46.0273	51.4475	41.2039	31.2363	18.276	8.5983	0	0	0	0	0	0	0	0	0	0	0	0	0	0	0	0	0	0	0	0	0	0	0	0	0	0	0	0	0	0	0	0	0	0	0	0	0	0	0	0	0	0
316	24.7495	23.9004	32.4761	30.0649	32.4167	42.6102	51.6768	43.2344	32.3773	19.594	11.2865	2.2307	0	0	0	0	0	0	0	0	0	0	0	0	0	0	0	0	0	0	0	0	0	0	0	0	0	0	0	0	0	0	0	0	0	0	0	0	0	0	0	0	0
318	37.658	27.8936	29.9484	28.9172	36.0572	42.5955	49.8384	45.0713	33.4166	21.3991	13.8825	4.4095	0	0	0	0	0	0	0	0	0	0	0	0	0	0	0	0	0	0	0	0	0	0	0	0	0	0	0	0	0	0	0	0	0	0	0	0	0	0	0	0	0
320	36.0563	29.0314	25.9287	29.6384	36.9008	40.9938	47.9519	46.8514	34.4211	23.7319	14.4871	6.5363	0	0	0	0	0	0	0	0	0	0	0	0	0	0	0	0	0	0	0	0	0	0	0	0	0	0	0	0	0	0	0	0	0	0	0	0	0	0	0	0	0
322	33.3623	30.1097	28.0571	32.9599	36.3336	39.4131	49.2933	46.0031	35.2252	25.8814	15.0025	8.571	1.8666	0	0	0	0	0	0	0	0	0	0	0	0	0	0	0	0	0	0	0	0	0	0	0	0	0	0	0	0	0	0	0	0	0	0	0	0	0	0	0	0
324	38.2392	29.1948	33.3014	35.8784	35.2945	40.7383	45.8225	44.2853	35.9811	26.1515	16.1283	10.5334	3.6701	0	0	0	0	0	0	0	0	0	0	0	0	0	0	0	0	0	0	0	0	0	0	0	0	0	0	0	0	0	0	0	0	0	0	0	0	0	0	0	0
326	36.1821	34.115	30.7361	34.5008	36.3241	41.7118	44.4556	43.3887	36.6724	26.3843	17.8241	11.4853	5.408	0	0	0	0	0	0	0	0	0	0	0	0	0	0	0	0	0	0	0	0	0	0	0	0	0	0	0	0	0	0	0	0	0	0	0	0	0	0	0	0
328	33.6073	31.1007	34.212	32.8896	36.9969	40.0668	43.1174	42.3925	36.6615	26.579	19.4392	12.39	7.0777	2.0089	0	0	0	0	0	0	0	0	0	0	0	0	0	0	0	0	0	0	0	0	0	0	0	0	0	0	0	0	0	0	0	0	0	0	0	0	0	0	0
330	33.0985	36.6213	31.008	32.4051	35.3035	39.8547	43.1094	42.541	36.3235	26.7469	20.1193	13.5511	8.6807	3.9425	0	0	0	0	0	0	0	0	0	0	0	0	0	0	0	0	0	0	0	0	0	0	0	0	0	0	0	0	0	0	0	0	0	0	0	0	0	0	0
332	37.4445	33.5616	33.1807	34.9886	36.017	39.2067	40.5118	41.2134	36.8566	26.5983	20.535	14.791	10.4247	5.7385	0.8634	0	0	0	0	0	0	0	0	0	0	0	0	0	0	0	0	0	0	0	0	0	0	0	0	0	0	0	0	0	0	0	0	0	0	0	0	0	0
334	37.2662	33.8854	35.9186	36.7662	36.7615	39.2957	38.0401	40.588	35.9237	28.2932	20.8871	15.9293	12.0457	7.4173	2.9891	0	0	0	0	0	0	0	0	0	0	0	0	0	0	0	0	0	0	0	0	0	0	0	0	0	0	0	0	0	0	0	0	0	0	0	0	0	0
336	38.1095	40.3847	37.0578	35.5639	36.5816	37.6385	39.5439	39.6676	35.6325	27.9728	21.1973	17.2747	13.5114	8.9875	4.9841	0.9741	0	0	0	0	0	0	0	0	0	0	0	0	0	0	0	0	0	0	0	0	0	0	0	0	0	0	0	0	0	0	0	0	0	0	0	0	0
338	39.709	38.9053	36.295	36.6194	38.679	37.9048	39.7861	38.9345	36.9859	29.6759	21.4686	18.5224	14.8316	11.1417	6.8544	1.9166	0.0334	0	0	0	0	0	0	0	0	0	0	0	0	0	0	0	0	0	0	0	0	0	0	0	0	0	0	0	0	0	0	0	0	0	0	0	0
340	40.2312	38.5314	37.637	38.1742	35.956	37.1494	40.1165	39.8018	36.4348	29.1925	24.0886	19.6565	16.041	13.1422	8.5967	4.5034	1.2902	0	0	0	0	0	0	0	0	0	0	0	0	0	0	0	0	0	0	0	0	0	0	0	0	0	0	0	0	0	0	0	0	0	0	0	0
342	43.8212	39.1556	40.4548	39.8525	37.5652	37.5929	39.8562	38.8704	35.8875	30.9955	25.0483	20.7901	17.8789	14.8758	10.2664	6.9561	3.216	0.4529	0	0	0	0	0	0	0	0	0	0	0	0	0	0	0	0	0	0	0	0	0	0	0	0	0	0	0	0	0	0	0	0	0	0	0
344	46.421	43.8964	38.3399	36.8693	39.116	39.3665	39.7274	38.935	36.3564	31.7059	27.179	21.828	19.5877	16.3013	12.8767	9.2643	4.997	2.5898	0	0	0	0	0	0	0	0	0	0	0	0	0	0	0	0	0	0	0	0	0	0	0	0	0	0	0	0	0	0	0	0	0	0	0
346	51.0914	44.1611	45.2628	39.5474	39.1683	37.7834	40.8655	38.2386	37.8399	32.6757	28.6072	23.6541	21.2228	17.6651	15.3596	11.4574	7.3155	3.9425	1.2768	0	0	0	0	0	0	0	0	0	0	0	0	0	0	0	0	0	0	0	0	0	0	0	0	0	0	0	0	0	0	0	0	0	0
348	49.547	48.5836	44.7593	41.4393	40.3405	40.0706	41.6562	40.7177	38.9087	34.7045	30.2993	26.2171	22.8013	19.9754	17.5446	13.5545	9.5267	6.4372	3.1051	0	0	0	0	0	0	0	0	0	0	0	0	0	0	0	0	0	0	0	0	0	0	0	0	0	0	0	0	0	0	0	0	0	0
350	53.5091	51.6442	44.1245	42.6469	41.1238	40.0665	42.4417	42.1797	40.0089	35.8128	32.409	28.7338	24.2725	22.147	19.4124	15.5439	11.6175	7.7553	4.8537	2.1526	0	0	0	0	0	0	0	0	0	0	0	0	0	0	0	0	0	0	0	0	0	0	0	0	0	0	0	0	0	0	0	0	0
352	54.6082	50.4977	48.7477	45.0099	43.429	42.1308	43.9219	43.1083	41.4972	37.7263	35.031	31.4216	27.7546	24.1844	21.1641	17.4156	13.5901	9.7721	6.6552	3.6621	0	0.191	0.2168	0	0	0	0	0	0	0	0	0	0	0	0	0	0	0	0	0	0	0	0	0	0	0	0	0	0	0	0	0	0
354	60.1042	57.0348	49.1484	47.2163	42.7479	45.385	44.3818	43.7243	43.9997	40.3596	37.6118	33.7553	30.7766	26.0832	22.8077	19.1666	16.5414	12.9326	8.0469	5.2509	2.0127	0.5577	0.4219	0	0	0	0	0	0	0	0	0	0	0	0	0	0	0	0	0	0	0	0	0	0	0	0	0	0	0	0	0	0
356	65.7439	54.3854	50.9164	48.1771	46.4738	44.9823	46.5784	44.9557	44.8699	42.7381	39.551	36.3189	33.0879	27.9394	25.4861	23.0181	20.4011	15.9641	10.7748	6.4613	3.8197	0.907	0.6176	0.0779	0	0	0	0	0	0	0	0	0	0	0	0	0	0	0	0	0	0	0	0	0	0	0	0	0	0	0	0	0
358	61.1357	59.9408	55.8622	49.5018	48.3782	48.6815	48.2022	48.7609	47.0646	44.725	42.0192	39.575	36.3538	32.7709	29.1571	26.7567	24.0351	18.9004	12.8952	8.9563	5.7298	1.2428	0.585	0.1526	0	0	0	0	0	0	0	0	0	0	0	0	0	0	0	0	0	0	0	0	0	0	0	0	0	0	0	0	0
360	68.606	62.8317	56.5265	54.8676	50.7838	50.8768	50.1242	49.6723	49.9736	46.0314	45.6198	42.9705	39.8159	37.0017	32.6502	30.2126	27.4975	21.6975	16.2946	11.2829	6.8225	3.5352	0.5533	0.2238	0	0	0	0	0	0	0	0	0	0	0	0	0	0	0	0	0	0	0	0	0	0	0	0	0	0	0	0	0
362	71.7118	64.9404	62.0277	57.822	54.4338	54.9138	53.7245	53.1445	52.5602	51.1433	48.8425	47.0221	43.6686	39.8238	36.2202	33.6803	30.2408	24.9646	19.6734	13.0294	9.2181	5.1105	0.5261	0.5106	0.3346	0	0	0	0	0	0	0	0	0	0	0	0	0	0	0	0	0	0	0	0	0	0	0	0	0	0	0	0
364	80.7215	70.8673	63.7618	59.7017	57.2988	56.4275	56.0204	57.3665	55.5565	54.1851	52.2529	51.4805	48.4616	44.4835	39.9377	37.0302	32.8882	28.9861	22.9438	16.1405	11.0428	6.9534	2.7211	1.0018	0.6588	0	0	0	0	0	0	0	0	0	0	0	0	0	0	0	0	0	0	0	0	0	0	0	0	0	0	0	0
366	83.9844	75.0833	70.2074	65.6724	63.0725	59.544	60.6052	60.2528	59.6523	59.21	56.1585	55.0064	53.1183	49.7492	44.0687	40.2955	36.3199	32.9021	26.127	19.1896	13.1962	8.5089	4.7552	1.4783	0.9733	0.1795	0	0	0	0	0	0	0	0	0	0	0	0	0	0	0	0	0	0	0	0	0	0	0	0	0	0	0
368	89.7947	80.6762	74.6782	67.5691	65.1127	63.5721	63.5843	63.8339	63.3861	63.1638	61.3424	59.4496	57.9904	54.5454	49.6883	43.485	40.0904	35.9334	29.1635	22.1606	15.4184	10.2298	6.1626	1.9415	1.0538	0.3538	0	0	0	0	0	0	0	0	0	0	0	0	0	0	0	0	0	0	0	0	0	0	0	0	0	0	0
370	93.1477	85.5751	76.4826	69.766	69.7405	68.4482	67.5051	67.7162	67.8297	67.2243	65.807	63.9408	64.1471	59.3117	56.0794	48.4961	43.741	38.8654	31.9697	25.0399	18.1247	12.2974	8.0608	4.0623	1.1315	0.5229	0	0	0	0	0	0	0	0	0	0	0	0	0	0	0	0	0	0	0	0	0	0	0	0	0	0	0
372	105.0435	89.498	84.569	77.8509	75.0464	71.5181	72.1385	72.9392	73.4888	70.3495	71.1308	69.7687	68.7943	65.7113	61.5257	53.2801	47.5163	41.7803	34.8622	29.0965	21.9772	14.8437	10.0904	5.8989	1.2126	0.9521	0.5075	0	0	0	0	0	0	0	0	0	0	0	0	0	0	0	0	0	0	0	0	0	0	0	0	0	0
374	106.8308	96.1871	90.5828	81.9194	79.9222	77.3323	77.2713	77.8473	77.7935	77.2618	76.5844	76.1977	75.4848	73.1619	66.2161	59.8879	51.2144	45.7027	39.9488	34.1922	25.7563	17.6439	12.0339	7.6574	3.5027	1.6318	1.0049	0	0	0	0	0	0	0	0	0	0	0	0	0	0	0	0	0	0	0	0	0	0	0	0	0	0
376	123.2468	104.8649	98.2144	88.3009	84.5807	83.0826	81.5801	81.4716	80.2062	82.4408	83.304	82.7723	82.0226	78.0451	72.4529	65.2031	56.9931	50.6277	44.8993	38.2611	29.4359	20.1235	14.2008	9.7165	5.343	2.2958	1.491	0.2685	0	0	0	0	0	0	0	0	0	0	0	0	0	0	0	0	0	0	0	0	0	0	0	0	0
378	127.2342	110.6589	101.6783	92.5677	90.808	85.5752	87.8984	87.0725	88.1566	88.9065	88.3222	90.5003	89.7118	85.4873	80.0205	72.2272	62.7098	55.3952	49.6985	42.2021	33.0051	24.2868	17.2	11.3968	7.3868	2.9422	1.5989	0.5307	0	0	0	0	0	0	0	0	0	0	0	0	0	0	0	0	0	0	0	0	0	0	0	0	0
380	140.0334	124.3544	106.055	97.5189	93.9314	93.9647	92.2032	92.5366	93.1628	95.0277	95.1299	97.5835	96.9074	93.6673	86.8878	77.9484	68.721	60.0439	53.4919	45.8382	36.4856	28.352	19.4564	13.7766	9.0824	4.705	1.7038	0.7864	0	0	0	0	0	0	0	0	0	0	0	0	0	0	0	0	0	0	0	0	0	0	0	0	0
382	154.7467	129.5791	116.3158	106.584	101.1033	97.5885	98.539	97.0849	99.2979	99.2684	101.5005	103.9344	104.6063	101.0798	93.99	84.3542	74.0585	64.8721	57.4489	49.402	41.1958	32.467	22.986	16.4966	11.0089	6.5942	1.8138	1.1961	0.4861	0	0	0	0	0	0	0	0	0	0	0	0	0	0	0	0	0	0	0	0	0	0	0	0
384	158.1444	140.2831	123.5387	115.0696	107.2521	102.5628	102.2118	103.4424	104.7865	106.3963	106.8529	109.4966	111.6118	109.3205	101.3041	91.1965	80.7016	70.2258	61.3453	52.9109	45.8392	36.5227	26.6334	18.8472	13.007	8.3134	3.9379	1.7538	0.9647	0	0	0	0	0	0	0	0	0	0	0	0	0	0	0	0	0	0	0	0	0	0	0	0
386	162.2113	139.8833	128.7052	118.2242	111.7975	106.5059	106.4265	107.4859	109.4077	111.6457	114.25	118.9576	120.0802	116.1341	109.9486	98.1391	87.2894	77.0297	65.4279	57.7225	50.3239	40.6713	30.3405	22.2126	15.3604	10.1247	5.963	2.3113	1.4411	0.3084	0	0	0	0	0	0	0	0	0	0	0	0	0	0	0	0	0	0	0	0	0	0	0
388	170.8855	148.5596	129.5521	123.5952	117.6051	112.2406	112.7009	113.9569	115.6033	116.5151	119.343	123.1761	126.8841	123.0485	115.6207	105.8585	93.7588	82.3452	69.7465	62.7407	54.7047	44.605	34.1504	25.35	18.2984	12.0792	7.3449	2.8748	1.6739	0.6166	0	0	0	0	0	0	0	0	0	0	0	0	0	0	0	0	0	0	0	0	0	0	0
390	184.3317	157.3855	141.9406	129.0813	123.2768	120.7796	117.0338	119.6124	121.6126	123.2562	126.257	131.7956	134.78	131.4575	124.8756	112.5574	100.8855	90.3664	77.7347	67.7673	59.0913	48.5428	37.9641	28.1146	20.8902	14.2991	9.4171	4.5796	1.9065	0.9245	0	0	0	0	0	0	0	0	0	0	0	0	0	0	0	0	0	0	0	0	0	0	0
392	192.4183	164.1906	148.3609	132.7849	130.6925	124.7559	124.6163	124.4038	126.7716	128.7002	132.0341	136.6135	141.2551	139.085	130.7577	121.7454	108.2154	96.8671	83.8986	72.3601	62.7354	52.1677	42.3925	32.3765	23.7718	16.8541	10.7784	6.2496	2.1261	1.3485	0.5051	0	0	0	0	0	0	0	0	0	0	0	0	0	0	0	0	0	0	0	0	0	0
394	205.4678	174.0498	155.5356	143.7674	133.945	130.3716	131.876	128.6603	135.4408	135.186	138.1799	145.0149	149.1597	146.4505	139.6881	127.3648	114.3803	103.5249	90.2629	76.8984	67.2419	57.5239	47.4736	36.59	26.6197	19.6122	12.6742	7.9663	3.6946	1.89	1.0036	0	0	0	0	0	0	0	0	0	0	0	0	0	0	0	0	0	0	0	0	0	0
396	208.27	185.1555	163.9817	146.441	143.2448	135.1394	133.5214	135.5106	137.6166	139.8049	144.3806	151.9171	155.4569	153.7584	146.4257	134.6181	122.9656	110.046	96.7739	84.5038	72.714	62.9197	52.2691	40.8185	29.794	22.4368	14.8829	9.6394	4.969	2.4281	1.4981	0.2579	0	0	0	0	0	0	0	0	0	0	0	0	0	0	0	0	0	0	0	0	0
398	210.7777	186.8121	168.8528	157.09	146.1403	142.1766	140.4117	140.5974	143.9557	145.8538	151.7375	158.9592	163.1828	163.0853	155.6572	144.2747	131.7472	118.5342	104.4019	90.9146	78.2677	68.0602	57.1159	45.0826	34.2385	25.1198	17.6913	11.1567	6.758	2.9654	1.595	0.514	0	0	0	0	0	0	0	0	0	0	0	0	0	0	0	0	0	0	0	0	0
400	227.2687	193.7835	178.6702	163.7557	155.0818	147.8879	148.5084	147.095	151.5205	153.027	157.015	165.4578	169.5423	169.4031	163.0387	152.5638	139.1377	126.5418	112.5948	98.7939	83.7972	73.0165	61.447	49.5739	38.6615	28.2922	19.9332	12.977	8.5295	4.4871	1.6911	0.7683	0	0	0	0	0	0	0	0	0	0	0	0	0	0	0	0	0	0	0	0	0
402	240.1767	209.1175	183.3908	170.4499	161.6677	152.9369	151.4764	152.7622	155.0994	158.1456	160.9996	171.9204	178.2379	175.9693	170.2161	160.2903	148.091	135.5043	120.1836	104.8077	90.5965	77.8135	65.6418	54.4457	42.9882	31.6131	22.8834	15.2691	10.0921	6.172	1.7835	1.2071	0.5235	0	0	0	0	0	0	0	0	0	0	0	0	0	0	0	0	0	0	0	0
404	246.7347	209.7688	190.3218	175.8506	168.87	161.2999	158.7516	155.9312	161.6621	162.9064	168.945	176.2559	184.5171	184.5338	179.897	167.6701	156.6383	142.6329	127.6467	113.3894	97.939	82.5684	70.3076	59.2761	47.2772	35.4287	25.2327	17.5159	11.8218	7.8964	3.8108	1.8284	1.0415	0	0	0	0	0	0	0	0	0	0	0	0	0	0	0	0	0	0	0	0
406	264.031	219.4598	201.7201	187.3489	175.6787	166.9162	165.6141	162.2272	165.552	165.5627	173.2011	181.7643	191.8672	191.4013	186.2217	175.9267	163.6202	150.8819	135.1578	120.9369	104.7315	87.4475	75.329	63.6654	51.4607	39.2839	28.7312	19.8374	13.5621	9.0985	5.0778	2.4478	1.5571	0.3618	0	0	0	0	0	0	0	0	0	0	0	0	0	0	0	0	0	0	0
408	275.5984	230.1944	202.2324	189.5324	184.7163	173.2469	169.6158	167.9604	171.3748	172.9434	177.7389	188.9497	195.8617	198.1656	194.7446	185.124	173.3802	159.3649	144.1896	128.231	112.1749	95.0202	80.4812	68.1629	55.3991	43.2011	31.3376	22.7182	15.4544	10.7768	7.0422	3.0689	1.8759	0.7225	0	0	0	0	0	0	0	0	0	0	0	0	0	0	0	0	0	0	0
410	266.5156	242.8341	217.7024	198.2897	186.917	179.4219	176.8424	174.7974	177.9615	178.3173	181.8747	194.9151	202.8441	202.5721	200.5822	193.0203	181.3888	167.4263	151.8159	136.2742	119.6138	102.1183	85.6313	72.32	59.3332	47.316	35.0807	25.122	18.1208	12.1957	8.4266	4.8232	2.1936	1.0822	0	0	0	0	0	0	0	0	0	0	0	0	0	0	0	0	0	0	0
412	283.0911	253.2982	218.8861	200.9914	196.7629	186.6603	183.9682	178.3356	181.2893	181.7632	186.8969	201.8648	207.9045	211.7173	210.6186	201.7895	188.3904	175.9354	160.7248	144.2361	126.1388	108.6565	90.7863	76.5187	63.6756	51.6326	38.8221	28.0484	20.2208	14.5366	10.2008	6.3661	2.5106	1.7396	0.7747	0	0	0	0	0	0	0	0	0	0	0	0	0	0	0	0	0	0
414	299.0095	255.7044	227.365	213.404	203.1124	191.1807	185.5657	184.2518	185.8969	185.9916	193.0928	202.7728	213.9948	217.4391	213.8875	207.3929	194.2055	183.8813	167.9026	151.5826	132.3979	115.2605	96.1669	80.9222	68.0147	55.3698	42.5593	30.5778	22.5379	16.215	11.7166	7.9016	4.7563	2.6936	1.5474	0	0	0	0	0	0	0	0	0	0	0	0	0	0	0	0	0	0
416	294.9949	266.2565	233.3197	218.0006	210.8691	198.153	190.2059	186.2433	188.5714	188.7241	194.3171	208.0315	217.632	221.7164	219.8928	215.7312	203.6796	191.787	176.1801	159.7664	140.5675	121.9806	102.388	85.5206	72.5181	59.2391	46.3989	33.6818	25.3654	18.7399	13.5599	9.7762	6.5587	3.6535	2.3232	0.6606	0	0	0	0	0	0	0	0	0	0	0	0	0	0	0	0	0
418	310.6373	274.4791	243.2744	229.8225	219.3414	204.5765	196.014	193.8961	193.6433	194.4479	200.5477	212.5506	220.9327	225.3121	226.8946	221.245	211.0611	200.2678	185.5283	167.9253	148.0603	129.0089	108.9168	90.3461	76.6301	63.2673	50.2366	37.5928	27.9495	21.5634	15.616	11.6059	8.6203	4.6257	3.0898	1.3254	0	0	0	0	0	0	0	0	0	0	0	0	0	0	0	0	0
420	319.1209	283.8596	251.0025	235.9319	224.3937	210.4368	203.1855	197.8651	198.9598	197.8485	202.7357	214.0787	226.0153	233.8105	231.5692	227.6382	218.9818	208.1695	192.4169	176.7772	156.3454	135.6435	114.9579	95.212	80.6411	67.0632	53.9599	41.535	31.1117	23.7046	18.0808	13.6309	10.3619	6.7264	3.8613	1.9944	0	0	0	0	0	0	0	0	0	0	0	0	0	0	0	0	0
422	330.2893	291.9966	260.7887	240.3042	229.8422	214.417	208.6348	201.4687	201.9927	200.9368	205.7493	219.252	230.0754	237.5577	237.6584	234.189	228.8307	215.9557	201.1045	181.2926	162.8086	142.2935	121.5953	101.3248	84.5702	70.9064	57.6998	45.5194	33.5595	26.4104	20.444	15.7361	12.5696	8.7974	4.6387	2.9795	1.1456	0	0	0	0	0	0	0	0	0	0	0	0	0	0	0	0
424	328.9456	294.1311	272.5093	244.6562	234.3035	220.1553	209.7234	206.8799	205.356	205.3154	208.5705	221.8655	234.3361	241.0036	243.9402	240.3087	233.2261	223.6194	208.7903	190.7718	170.2065	149.5467	126.8305	106.7481	88.5315	74.7544	61.4703	49.5372	37.2367	29.3827	22.9162	17.8011	14.2187	10.8912	7.0561	4.2838	2.2992	0	0	0	0	0	0	0	0	0	0	0	0	0	0	0	0
426	333.9584	305.8104	271.6199	250.5014	238.3242	227.7899	214.6138	212.3442	207.8463	207.7204	211.567	223.9772	235.2887	244.1355	246.844	246.8852	240.543	229.4345	216.0536	199.9247	176.286	155.8232	133.7533	112.0203	92.6781	78.7495	65.6786	53.2683	41.0109	31.9734	25.9857	20.3857	16.6375	13.0729	9.0113	5.6063	3.4664	0.8561	0	0	0	0	0	0	0	0	0	0	0	0	0	0	0
428	347.285	307.2642	279.176	264.8622	246.0918	229.4253	223.7674	212.6974	213.4483	209.2292	213.82	227.0225	239.6836	250.8327	252.2652	251.6557	247.402	238.345	222.4066	206.0453	185.9733	162.7767	139.5536	117.4581	98.4064	82.9238	70.048	56.3106	44.9002	34.6479	29.0687	23.1964	18.8416	14.8305	11.1911	6.9534	4.3286	1.7235	0	0	0	0	0	0	0	0	0	0	0	0	0	0	0
430	359.0944	317.4615	288.1711	268.3279	255.365	239.4627	225.8746	217.737	213.0351	213.8105	216.7552	230.2581	244.7042	254.053	258.0023	257.5003	254.3809	247.6451	232.6751	213.8571	193.9851	170.6338	145.6586	123.3907	104.0394	87.1544	73.6457	59.3924	48.844	38.4992	31.4863	25.6075	21.6128	17.4674	13.4167	8.8166	5.2019	2.6023	0	0	0	0	0	0	0	0	0	0	0	0	0	0	0
432	358.6272	329.5673	292.6103	271.1104	257.2404	242.1499	228.8369	222.294	218.288	214.9015	219.5467	229.828	244.7847	257.127	261.9179	262.792	261.4128	253.1658	240.0177	222.4405	199.924	176.3205	151.4846	128.6389	108.9802	91.3395	76.7855	63.4017	52.772	42.3577	34.1314	28.1471	23.826	19.1075	15.3345	10.7562	6.0796	3.5417	1.0803	0	0	0	0	0	0	0	0	0	0	0	0	0	0
434	354.1057	325.3309	294.0714	280.1808	263.9987	245.9761	230.6696	223.1261	218.5074	217.1604	221.3349	233.0333	247.5327	259.2594	263.4907	269.1837	264.9364	259.6446	246.6262	228.2488	206.5048	181.8923	157.0847	134.42	113.1334	96.7557	79.9594	67.4584	56.7226	46.2623	36.9065	30.6312	26.0969	21.5909	17.1235	12.7921	7.8929	4.5445	2.1725	0	0	0	0	0	0	0	0	0	0	0	0	0	0
436	373.1645	336.0427	305.4266	283.5485	266.8988	247.3208	236.2964	225.4466	221.7688	218.964	222.0854	234.833	250.1091	259.3789	267.3515	271.9283	271.072	264.8328	253.1358	234.9282	214.5778	188.8987	162.2269	139.2397	118.1467	99.9595	83.2762	71.6314	60.7986	50.2785	39.5936	32.9545	28.3465	23.4434	19.4148	14.4173	9.7439	5.5651	3.2808	0.7338	0	0	0	0	0	0	0	0	0	0	0	0	0
438	374.5516	329.3257	309.3216	294.8939	272.1743	252.9926	238.1615	230.4551	222.2189	220.6951	225.1175	235.0392	251.558	264.6986	270.7054	277.3847	276.5975	272.9384	260.5462	242.3758	221.1177	193.5031	168.1435	143.9512	122.2884	104.5117	86.7475	75.4209	63.9653	52.8425	42.3051	35.1842	30.5808	26.1557	21.1265	16.1293	11.4892	6.6074	3.9419	1.4792	0	0	0	0	0	0	0	0	0	0	0	0	0
440	382.7729	346.2733	309.6989	293.9978	277.4962	257.0299	242.2053	230.532	226.4159	221.0769	226.2773	237.5878	255.0815	265.3521	274.6306	279.0935	280.9641	280.2793	267.9572	248.7272	226.0527	200.4801	173.8717	149.5657	126.4981	109.816	91.2709	77.6724	66.1195	54.7682	45.0573	38.4689	33.3082	28.2687	23.0631	17.9929	12.9901	8.211	4.6131	2.2361	0	0	0	0	0	0	0	0	0	0	0	0	0
442	384.6176	338.9205	317.8042	296.9847	273.8463	259.4716	247.3766	232.9083	229.6224	223.8751	227.0343	237.263	254.4358	266.4668	277.3957	285.6055	286.5036	282.9291	272.9218	254.0914	231.2352	207.0848	179.1389	153.2836	131.0741	112.4423	94.4123	79.8894	68.248	56.3838	47.8131	40.0807	34.9207	29.9001	24.7171	19.4246	14.4097	9.6347	5.29	3.0452	0.9177	0	0	0	0	0	0	0	0	0	0	0	0
444	387.3785	347.7498	317.9256	303.0331	283.9772	261.7021	246.1359	233.2413	229.9186	223.5302	226.7749	240.3317	253.5384	269.0676	280.0361	287.3815	291.6995	287.2671	276.308	261.507	238.3401	211.8026	183.88	158.0052	135.2771	116.4785	97.8397	82.1319	70.1088	58.0177	50.6061	42.2909	36.842	32.1164	26.659	21.0307	16.0599	11.2828	6.7527	3.9086	1.8483	0	0	0	0	0	0	0	0	0	0	0	0
446	392.0625	352.6336	324.956	303.1309	284.8881	265.4699	250.4987	233.0647	227.0848	225.6417	227.4663	239.0015	253.4278	269.2885	281.0595	290.1589	297.0501	292.6053	283.5631	266.6479	244.5832	216.8673	188.8214	161.3261	138.7606	119.2169	101.0136	84.4554	71.8899	60.9317	52.9131	44.5587	39.0719	33.6373	28.6534	22.853	17.579	12.7691	8.3275	4.7867	2.7935	0.6035	0	0	0	0	0	0	0	0	0	0	0
448	407.5332	360.1661	324.3939	307.3205	286.9112	267.0348	250.5307	233.1287	228.8936	223.2691	230.078	239.8675	254.5162	270.2324	281.6637	294.6831	298.8056	296.1101	288.0897	271.8348	248.3241	222.272	193.8607	166.4981	143.4545	122.8965	104.582	87.1963	73.7391	63.9282	54.1605	46.8882	41.3469	35.5403	30.2283	24.7233	18.8069	14.3814	9.75	5.6813	3.3007	1.2169	0	0	0	0	0	0	0	0	0	0	0
450	407.3645	362.0465	328.472	310.176	293.6908	265.7145	251.5628	235.8231	230.804	224.4994	228.2739	240.5072	256.0614	269.4349	283.5912	293.6923	302.4243	302.0859	292.8945	278.0017	254.8169	226.1075	197.429	168.5947	145.8115	125.5288	106.6811	89.4774	75.6102	65.8346	55.4217	49.2518	43.2156	37.4336	32.3582	26.1048	20.4348	15.5461	11.0481	7.0171	3.8156	1.84	0	0	0	0	0	0	0	0	0	0	0
452	392.4809	356.4302	328.2466	310.4519	293.69	272.2865	254.6385	237.6875	228.8133	225.6714	227.2401	238.8627	256.2211	268.1736	283.8824	297.9156	303.7308	304.9119	296.2976	281.0082	258.2141	231.0391	200.7494	173.7927	150.0778	128.7363	110.9594	92.1763	77.5396	67.2238	57.9027	51.517	45.1313	39.0472	33.3536	27.571	22.1793	16.7657	12.2814	8.2406	4.3403	2.5062	0.7631	0	0	0	0	0	0	0	0	0	0
454	396.5541	364.8289	333.5788	310.7903	293.9571	271.3693	257.1402	237.8399	231.109	224.8522	228.7727	237.0269	255.9166	271.6745	285.2313	299.547	306.1549	307.3989	298.7437	282.6003	261.4797	234.1546	204.2371	176.1869	151.944	131.8124	112.9232	94.9885	79.9005	68.6278	60.4203	53.4987	47.0746	40.4873	34.9578	28.9525	23.0358	18.1415	13.5107	9.188	6.0725	3.2159	1.5391	0	0	0	0	0	0	0	0	0	0
456	391.8678	365.2053	338.6586	308.0533	300.5856	274.1721	256.6296	238.7749	231.3252	222.0981	225.7429	237.7169	254.7597	270.3745	284.6596	300.0017	307.9079	309.3093	302.9101	288.2001	264.9555	238.2622	208.6791	178.7171	153.9801	134.1147	114.8755	96.4901	82.3127	70.1562	62.7515	55.5942	49.1218	42.1071	36.2394	30.5986	24.8108	19.1233	14.6122	10.7601	6.8445	3.9431	2.3316	0.494	0	0	0	0	0	0	0	0	0
458	396.8612	366.6947	331.8045	318.8208	297.3745	271.9511	253.7927	237.5957	229.3869	221.6161	224.9287	236.734	254.5925	267.5313	284.9736	299.5182	309.6865	310.9497	304.4691	290.9474	267.6001	240.5607	212.5607	181.0813	156.0855	136.7036	116.7211	100.0387	84.6064	71.8135	64.7254	57.1506	50.28	43.1836	37.7053	31.5914	25.949	20.3168	15.6473	11.5267	7.866	4.691	2.7256	0.9991	0	0	0	0	0	0	0	0	0
460	393.8408	370.7707	338.2971	317.8184	301.4644	275.8854	255.1735	238.9887	228.4977	222.9938	224.8028	238.7168	252.8757	266.7492	284.008	299.6737	309.747	313.8195	306.6459	292.3636	271.8465	243.9993	212.4331	183.7626	158.2207	138.4797	119.1224	102.2185	86.9807	74.6397	65.7229	58.0607	51.013	44.2741	39.1598	33.551	27.3821	21.5572	16.5898	12.6581	8.798	5.6949	3.1279	1.5153	0	0	0	0	0	0	0	0	0
462	394.7494	361.042	338.1302	318.2746	297.6638	278.0056	255.5798	239.7992	228.0031	221.7949	229.0544	234.6249	251.6235	267.7619	281.7699	300.2076	309.2906	312.1063	308.1893	295.1018	273.0006	246.0863	214.5284	187.4184	161.0605	139.7574	120.328	103.4587	88.8755	76.3553	66.8013	59.0429	51.6007	45.4286	40.01	34.3999	28.3376	23.2645	17.9168	13.5885	9.9655	6.7541	3.5422	2.0995	0.6661	0	0	0	0	0	0	0	0
464	385.7973	371.9212	329.9464	315.7878	303.9914	273.0143	256.2679	237.5677	228.3582	223.214	225.4001	234.1942	249.5629	266.6375	283.0709	298.3432	308.2377	314.4758	308.5645	293.7087	273.0786	247.1834	216.2726	186.2295	162.5455	141.0282	122.7121	104.1006	89.8155	77.7801	67.8868	59.825	52.1879	46.5984	40.784	35.267	29.2395	24.1886	18.8242	14.4763	10.8911	7.4597	4.7302	2.7524	1.3482	0	0	0	0	0	0	0	0
466	379.9091	367.1322	330.7029	316.484	302.0351	275.9667	254.642	235.2768	227.716	222.6054	221.0845	232.6364	245.4372	265.0336	281.655	297.0227	307.4276	311.8043	306.9313	295.4775	273.8848	248.0609	217.0388	188.2999	163.9586	143.1197	123.7529	107.1166	91.4432	79.6355	69.001	60.5231	53.456	47.5575	41.578	36.4647	30.4564	25.141	19.9684	15.2503	11.6481	8.6498	5.6748	3.4212	2.047	0.4748	0	0	0	0	0	0	0
468	373.9082	365.6002	340.1591	316.5577	298.7337	278.6928	259.07	236.1924	225.6081	218.3607	220.3258	232.5193	246.0218	259.7811	279.8065	293.0727	303.4763	311.8546	306.2628	295.0681	272.8121	248.2792	218.468	189.5313	164.3405	145.257	125.0971	106.9581	93.1688	80.7847	70.603	61.2394	54.7569	48.0533	42.3924	37.0144	31.537	25.8242	20.8007	16.2241	12.5833	9.3523	6.6415	4.1067	2.4953	0.9614	0	0	0	0	0	0	0
470	367.6629	357.5777	333.3993	310.1139	300.8034	276.7756	256.4163	234.8396	226.6055	217.7264	219.4699	227.7537	243.7242	259.1416	275.1377	289.7391	301.5175	306.594	304.2911	293.4361	273.2677	246.3553	216.8945	188.946	164.5677	144.9885	125.8404	106.9279	92.6708	81.9362	71.7106	61.9552	55.5805	48.5471	43.2145	37.8016	32.5144	27.0714	22.0437	17.1914	13.5571	10.087	7.5683	5.1292	2.954	1.4596	0	0	0	0	0	0	0
472	362.1333	347.6249	331.9408	313.029	298.3659	272.0842	253.7013	232.5574	221.3409	216.4496	215.4682	226.8309	238.0725	252.6252	270.8854	287.7636	296.9917	305.012	300.2947	289.2127	271.8408	244.4057	216.4714	188.7518	165.4706	144.3525	125.2712	108.7298	94.111	82.5058	72.9451	62.8213	56.2933	49.5588	44.1597	38.6894	33.5762	27.7638	23.0651	18.2331	14.073	10.9305	8.0934	5.9086	3.4311	2.0412	0.6639	0	0	0	0	0	0
474	356.3039	349.4975	331.6848	311.8528	291.7782	268.7417	250.7217	230.5776	219.2811	210.4323	213.8319	223.4441	234.3839	247.1036	265.1158	281.5698	292.2025	298.084	296.5109	286.2105	266.6789	243.3919	216.1528	188.2417	164.7403	144.6431	126.0852	109.0535	94.2665	82.8874	73.3824	64.3339	57.0038	50.5797	45.135	39.5872	34.0147	28.6634	24.0065	19.0681	14.5899	11.5529	9.0702	6.7165	4.4106	2.7067	1.3468	0	0	0	0	0	0
476	349.8231	344.0636	327.8973	314.8372	296.4302	266.398	245.588	225.4039	215.3562	208.2378	209.2707	219.1375	231.0686	242.647	261.2583	276.6601	286.0595	293.9496	288.8581	280.3899	262.789	239.9225	213.0003	186.0108	165.092	144.1652	125.7515	109.3419	94.2109	83.5502	73.3202	64.9228	57.6585	51.583	46.0779	40.4579	34.6742	29.61	24.4262	19.96	15.5522	12.3534	9.8432	7.3779	5.5768	3.387	2.0467	0.4985	0	0	0	0	0
478	342.7306	338.0447	320.4093	303.9112	288.561	266.725	245.3267	225.2047	212.8526	205.9923	208.055	214.3075	225.1983	241.1296	253.4545	269.3429	280.5391	287.4562	285.6403	274.0337	259.4123	237.6087	210.4399	183.975	162.1276	143.3693	125.3274	109.6993	94.6271	83.4532	74.2617	65.0786	58.2578	52.4066	46.6828	40.8415	35.1893	30.0413	25.3598	20.7661	16.4446	13.1346	10.4833	8.3982	6.1464	4.0804	2.5525	1.009	0	0	0	0	0
480	335.3971	331.8023	316.5108	303.2628	289.3768	264.4865	240.4922	222.3221	211.9181	208.2111	206.9382	210.684	223.2732	236.3471	248.8153	265.562	275.4018	281.343	279.6395	270.4142	256.5072	233.5638	206.9782	183.0418	161.7309	143.3531	125.726	108.6629	94.9933	83.7116	74.9261	65.8389	59.0207	52.7749	46.9807	41.0908	35.7068	30.4858	25.8592	21.6616	17.0226	13.9139	11.369	9.0765	7.1708	4.7457	3.0697	1.5316	0	0	0	0	0
482	327.0795	324.5985	309.832	296.1416	282.6909	262.443	239.9607	218.8684	210.9653	201.6986	203.0963	206.5429	217.4768	231.1917	245.5879	259.9344	268.3167	276.3552	273.8707	266.7346	250.2777	231.1252	205.1016	180.7995	159.6669	142.1233	125.018	109.1738	94.9267	84.2956	74.93	65.9301	59.397	53.0264	47.1741	41.295	36.1514	31.2873	26.296	22.2928	18.2271	14.5843	11.8929	9.7229	7.5895	5.4647	3.591	2.0697	0.6083	0	0	0	0
484	318.584	317.2273	310.273	294.4212	280.9588	260.8736	236.2074	218.6918	207.2395	198.5125	200.46	204.4787	212.0668	224.3151	237.1662	252.2159	262.7119	268.4997	267.8762	259.7899	244.6687	223.318	200.7654	176.5046	158.0307	140.5438	123.5495	108.0269	94.1288	83.0376	74.4138	65.966	59.8065	53.273	47.409	41.4956	36.5979	31.6877	27.4965	22.7959	18.8383	14.989	12.4523	10.6353	8.3781	6.3841	4.3051	2.6257	1.2283	0	0	0	0
486	309.8472	309.6249	303.9414	297.2445	276.5187	256.1732	236.177	216.9492	204.9807	194.2822	194.1371	199.1988	211.1149	220.144	231.1188	243.646	256.1769	261.4423	260.4091	253.1476	241.5219	220.5163	198.8255	176.0033	155.268	139.805	123.2339	107.7375	94.2791	83.3009	74.2549	66.3479	59.7614	53.5041	47.6539	41.9826	36.9515	32.0839	27.8842	23.1625	19.2818	15.8864	13.061	10.5888	9.0808	6.9078	5.0784	3.1914	1.8597	0.41	0	0	0
488	300.8799	301.8009	297.4018	287.8729	274.4372	254.395	236.0119	213.6871	199.0492	191.6034	193.9756	196.7576	205.3697	214.8821	226.4078	240.6798	249.611	255.4339	256.1623	248.9176	234.0953	216.5725	194.747	173.4378	153.8827	137.6904	122.1076	106.8061	93.8022	84.2656	75.3915	66.725	60.3049	53.9655	47.8859	42.4632	37.1212	32.4757	28.3008	24.1533	20.1783	16.9377	13.6709	11.6301	9.619	7.5036	5.857	3.7663	2.2137	0.8274	0	0	0
490	291.7541	293.8261	290.7229	286.5491	270.5998	250.3905	233.4419	212.2004	196.8228	188.2067	187.4596	193.6485	199.4982	213.75	223.5005	234.8707	243.2981	249.0678	246.873	240.5368	228.3517	211.5735	190.4858	171.5373	152.5311	136.3206	121.3282	106.1853	93.2589	83.3045	74.4328	66.3058	60.6795	54.4421	48.1145	42.7675	37.288	32.8695	28.3223	24.8941	20.7367	17.5295	14.6122	12.0813	10.2506	8.1741	6.2971	4.6792	2.5737	1.2522	0	0	0
492	282.7638	286.2286	284.1995	281.6164	264.9145	246.4251	230.1618	206.2682	197.6062	185.3127	185.1932	188.7851	199.0011	204.4627	215.6595	227.8433	236.2801	240.7631	239.6355	234.0165	222.1093	206.7492	186.9361	168.1487	150.0261	135.3837	119.4939	106.0413	92.2817	82.923	74.2259	66.6627	60.8489	54.7666	48.3861	43.0217	37.7587	33.2969	28.7252	25.2196	21.3395	18.0331	15.0604	12.6109	10.8927	8.727	6.9775	5.2872	2.9424	1.7589	0.5765	0	0
494	273.5942	278.6966	277.5198	274.1124	261.752	241.86	222.8599	205.996	194.339	184.4741	184.1157	186.2273	192.105	199.3102	209.6474	220.1266	228.0443	233.1635	234.3849	228.5845	217.6679	202.5274	183.133	164.7576	148.128	132.837	118.2431	104.2048	92.3413	82.6556	73.9955	66.7645	60.9532	54.951	48.9821	43.2728	38.2316	33.4214	29.1307	25.7902	22.3551	18.2031	15.6519	13.1108	11.3349	9.3804	7.5292	5.8457	3.8678	2.3491	1.1643	0	0
496	264.1624	270.9131	271.2013	267.5535	262.6378	239.833	218.2772	200.9788	187.353	179.1757	179.4011	182.221	186.6736	193.0463	203.1186	216.0152	221.3404	226.8647	227.6383	222.0839	210.4979	195.6058	178.5398	160.1097	145.0077	130.1228	116.0501	103.0731	91.2216	82.0176	74.3165	65.2833	59.9768	54.6979	49.3528	43.5075	38.5412	33.378	29.5297	25.9555	22.5269	19.3488	16.6939	13.7791	11.3873	9.8211	8.0422	6.3087	4.5219	2.9494	1.7627	0.4211	0
498	254.4838	266.0853	264.2018	260.7689	254.9712	235.0979	216.9323	196.4807	185.9773	176.1201	176.1126	176.9272	180.3602	189.1196	196.1553	206.2969	213.5489	218.1523	219.3864	215.4027	203.7585	191.1092	174.0305	157.0289	141.3425	128.0306	113.5214	101.029	90.0729	81.2823	73.0186	65.8454	59.9283	54.1954	49.9478	43.7258	38.5284	33.3182	29.9221	26.0156	23.4037	19.5543	16.9982	14.1692	12.1913	10.4035	8.9278	6.9597	5.1458	3.5595	2.1768	0.8498	0
500	251.6776	258.0968	257.0663	253.8507	250.1794	228.2285	211.584	193.3034	180.3979	173.5082	170.929	171.0512	175.0381	181.7837	190.0443	198.7319	206.3897	212.4984	211.7021	207.9129	198.3123	184.0795	169.0823	152.9736	138.007	125.1359	112.4834	100.0488	89.4739	79.5815	72.8362	64.769	60.0793	54.8783	49.075	43.7807	38.5095	33.7431	30.1125	26.0728	23.2725	20.1563	17.5782	15.5283	12.5795	10.972	9.4288	7.6189	5.7065	4.3568	2.5978	1.286	0
502	259.7796	249.8874	249.4323	246.7214	243.7938	226.287	207.0688	189.5545	176.8724	169.4137	164.482	165.3244	172.6491	176.5691	184.3307	193.0801	199.6198	204.3319	203.0607	198.5677	190.2632	179.2531	163.0799	148.7125	135.3057	122.6676	110.2489	98.1163	87.4488	79.3583	70.7597	63.8418	58.7823	53.7284	48.7962	43.8402	38.4728	34.1601	29.8804	26.1192	23.5132	20.4469	17.8166	15.3967	12.9965	11.301	9.504	8.0161	6.3067	4.7876	3.0251	1.7841	0.7594
504	259.5482	241.5458	241.3847	239.4682	236.0689	223.5601	204.6238	185.5687	174.5804	162.6159	160.3738	162.6649	166.2679	171.4965	178.1302	186.4414	190.7883	197.4478	196.2975	192.9276	184.1241	172.8488	158.2543	144.9735	131.3451	119.61	107.8739	96.5542	85.2115	77.5528	70.0903	63.4756	58.2213	53.0126	48.1402	44.0554	38.4301	34.1636	29.6403	26.1628	22.6911	21.1732	18.1795	16.0694	13.6225	11.2248	10.1769	8.3988	6.8497	5.482	3.7099	2.346	1.5318
506	243.8968	233.3667	233.5012	232.8507	228.2953	217.1303	204.4291	181.4925	168.9161	159.8738	157.2913	156.4494	161.4315	165.0463	169.4925	179.5241	184.7304	187.7996	189.4294	183.6518	175.5527	166.618	152.6466	139.644	128.0335	116.6676	106.0323	94.1372	84.42	76.318	68.9376	62.5315	56.8835	53.2326	48.0037	43.0719	38.4269	33.9931	29.7436	26.2343	22.9257	21.2399	18.3224	16.2111	14.2911	12.0803	10.5358	9.0206	7.3273	5.9722	4.7434	2.9204	2.3197
508	241.1821	225.3105	228.1519	226.246	220.6428	209.8795	195.0596	176.08	165.7687	154.5243	152.841	154.1694	157.7381	158.5862	164.861	172.2792	178.7221	181.0795	181.6516	176.8998	170.4726	161.4162	149.3435	135.3321	124.1316	112.941	103.5667	91.7096	81.6161	75.2014	67.4796	60.9585	56.7544	52.0475	47.6098	43.1202	38.416	33.853	29.8786	26.239	23.1877	21.3672	18.9954	16.9082	14.8339	12.2442	10.8083	9.3641	8.0117	6.4524	5.0718	3.5093	3.1261
510	235.3465	221.1596	220.6057	219.4775	212.8152	204.9748	189.1473	173.2003	163.2774	151.1244	149.1202	150.5593	151.0321	153.8589	158.8495	165.3506	169.9915	173.5383	174.1642	171.768	163.4161	153.9243	144.3404	131.5497	120.0824	111.1698	101.2904	90.8126	80.8329	73.4938	66.8536	60.1808	55.7491	51.1968	46.8823	42.4414	38.5599	33.7025	29.9618	26.1905	23.4501	21.2216	19.0314	17.2691	14.8576	13.0742	10.8521	9.5989	7.969	6.8867	5.5876	4.2718	3.949
512	229.3265	214.3096	212.8601	211.5829	204.7875	197.4711	183.1309	167.0057	156.795	150.3378	142.5195	145.8435	145.7974	148.7812	150.3083	157.9466	163.8019	166.5354	165.3372	162.872	157.2817	150.046	137.0798	126.4824	116.5173	107.5455	98.1222	88.8395	78.8833	71.2616	65.4459	59.5175	54.7718	50.4998	46.2717	42.2752	38.0234	33.5373	29.9395	26.1321	23.71	21.176	19.4833	17.1481	15.4941	13.3865	10.8637	9.7101	8.5491	7.274	5.791	4.7988	4.7879
514	223.1572	207.8386	204.9485	202.5806	196.5925	188.6129	180.1441	163.8402	152.847	146.8035	139.231	141.3915	141.4401	144.003	147.8264	152.713	157.9953	160.3012	160.3127	155.8507	152.4906	143.5001	132.2187	123.4453	112.8444	104.0286	95.6713	87.2761	77.2077	71.4694	64.1463	58.3949	53.5766	49.9686	45.5379	41.3641	37.9453	33.7323	29.9106	26.4173	23.7957	21.125	19.6214	17.7962	15.55	13.562	11.5155	9.6462	8.3768	7.5747	6.3148	5.118	5.1064
516	217.0169	196.8917	197.0325	193.5609	188.2244	183.0757	175.2765	162.7001	147.7054	141.2338	136.7908	136.4495	136.0047	139.7962	143.5316	147.0358	152.0321	153.8136	153.1383	151.4849	146.4884	137.7846	128.6343	118.6051	109.7241	101.2062	93.5744	83.7376	75.9592	69.3543	63.4761	57.1001	52.5339	48.9225	44.696	41.4545	37.5383	33.8609	29.8982	26.7235	23.5439	21.085	19.3417	17.8164	16.1178	14.1952	11.9835	9.9905	8.777	7.955	6.6991	5.5993	5.5865
518	210.8855	194.445	189.089	185.8344	182.718	177.5362	172.4849	155.0518	144.5718	137.3436	133.1162	133.2599	133.9265	134.0204	138.0791	140.1808	145.7911	148.2844	147.8999	146.0254	140.4383	133.3391	124.6176	114.7731	106.7151	99.9679	91.6138	82.2149	74.9852	67.9667	62.0532	55.932	52.2847	48.3889	44.5677	40.8905	37.1325	33.5235	29.9014	26.6904	23.2991	21.0553	18.9694	17.6441	16.0445	14.3684	12.5159	10.2367	8.8675	8.092	7.0869	5.9564	5.9428
520	204.581	176.788	181.9871	179.5625	177.0558	171.8418	166.2004	149.7088	142.1191	132.581	129.1103	129.2717	127.0751	130.391	131.8099	137.7766	139.5507	140.8322	142.0307	139.8074	135.5686	128.9871	119.4303	111.2905	102.8641	96.1564	88.4869	79.9251	72.4985	66.9083	61.2509	54.7365	50.7693	46.8897	43.6144	39.8566	36.3207	33.4927	29.897	26.4675	23.2879	21.0196	18.9434	17.8456	16.5548	14.5367	12.8051	10.0746	8.7203	8.1904	7.0106	6.0927	6.0789
522	198.092	172.4001	179.3121	173.1147	170.9072	165.9826	164.5707	146.0228	139.0015	130.0604	125.8254	127.3316	124.4448	124.9165	129.1233	131.7757	134.9709	136.4326	136.0778	134.9237	129.3189	123.6416	115.4033	106.4399	100.1904	93.4477	86.4302	77.2111	70.8121	64.4497	59.0829	54.0457	49.7775	46.298	42.6852	39.3725	36.4303	32.9606	29.2649	26.2313	23.2692	20.8232	18.9108	18.0393	16.3894	14.792	13.0609	11.0069	8.2463	8.3183	7.5161	6.5005	6.4856
524	191.435	167.8833	174.9359	166.5058	164.2796	159.9729	157.7049	142.3042	133.1289	126.4976	122.0034	121.6279	120.9016	120.9806	123.1291	127.3887	128.7502	129.6797	130.9902	128.5341	124.1501	118.963	111.2001	103.9694	96.9009	89.9879	84.1786	75.0339	68.624	63.1914	57.2059	52.5783	48.8276	45.083	41.6146	38.6938	34.8865	32.3007	29.2205	25.9836	23.1668	20.54	18.873	17.5442	16.4789	14.6366	13.223	11.4638	8.4488	8.1429	7.669	6.8457	6.8301
526	184.743	163.3537	170.0794	159.8502	157.6041	154.2261	151.4294	138.5439	132.5567	121.6898	119.5841	118.486	115.0789	115.9697	119.7668	122.8335	124.6576	125.0961	125.4281	124.3352	120.5252	115.4715	108.0728	99.6074	93.9524	88.2203	81.558	75.0032	67.2981	61.8803	56.1591	51.8975	47.7492	44.4741	40.7715	38.6336	34.6557	31.7753	28.6291	25.7417	22.915	20.2594	18.8426	17.4618	16.5521	14.496	13.1594	11.6146	9.0657	7.6637	7.833	6.6914	6.6761
528	177.9983	158.7983	167.6967	153.1309	153.0296	149.8842	145.0926	136.4188	127.4347	118.9488	115.3207	112.5938	113.7275	113.455	115.8014	118.7613	120.6118	121.9417	120.9497	118.4844	116.177	110.3225	104.0416	97.8789	91.7758	86.0572	78.9464	72.9472	65.4294	59.7416	55.3312	50.1931	46.9083	43.3798	40.2572	37.2139	34.513	31.3523	29.0623	25.2866	22.6667	20.2544	18.7634	17.3845	16.1233	14.8387	13.4052	11.7105	9.5694	7.4206	7.7444	6.9045	6.8888
530	171.0655	154.0984	145.7656	149.881	148.0549	145.4045	138.5842	132.0761	121.951	116.3394	111.7413	109.3616	108.7109	108.9842	111.4928	113.8256	115.7076	114.6767	116.2731	114.9405	111.3972	107.0488	101.3757	93.7429	87.5766	83.4111	77.648	70.2726	63.9713	59.1346	53.8752	49.4212	45.8107	42.676	39.2702	36.4614	33.414	30.5951	28.1454	25.3429	22.4059	20.2435	18.5642	17.3005	16.1757	14.736	13.2668	11.8936	10.1215	7.2487	7.0139	7.2857	7.2691
532	163.9727	149.2784	134.4732	147.8864	142.9558	139.5583	131.9266	128.8609	120.0305	112.4205	109.8998	107.0708	106.4597	106.366	107.6898	109.4523	111.0717	112.1128	111.1197	111.3068	106.7366	102.5931	96.477	91.2652	86.4565	80.4011	75.4584	68.983	62.3672	57.7161	52.5923	48.307	45.608	41.8892	38.7579	35.8633	32.9262	30.2776	27.4961	25.2315	22.1359	20.1161	18.3578	17.2121	16.0228	14.6014	13.3815	11.8295	10.3999	7.6709	6.6796	7.0549	7.0388
534	156.6935	144.3141	134.3226	145.3937	137.7093	132.2923	125.0987	123.1683	117.2888	110.4468	106.7353	105.597	103.1785	101.4657	103.182	105.4617	106.4125	107.2871	106.79	106.6927	103.9557	99.1209	93.3983	87.6515	82.4329	78.533	72.1882	66.7242	60.5705	56.286	51.228	46.966	44.3384	40.5927	38.0705	35.149	32.4593	29.8391	27.806	24.6523	21.8533	19.9226	18.279	17.1168	15.8078	14.4346	13.3587	12.2206	10.7509	8.3573	6.015	6.8139	6.7984
536	149.3099	139.2809	134.2016	144.3165	132.387	124.9156	120.0993	118.7705	112.3425	108.5007	103.3135	100.5289	100.225	99.7903	100.3089	101.7248	103.2876	103.2432	105.306	102.8481	99.1054	96.1141	90.8017	86.3294	79.3861	76.2116	71.4597	65.5684	59.4378	54.2162	49.7482	45.6521	42.8946	39.8212	37.4031	34.4802	31.4488	29.2214	26.6578	24.5128	21.664	19.7292	18.2028	16.9086	15.5915	14.6353	13.4322	12.2445	10.3734	8.9815	6.2484	6.397	6.3824
538	141.8088	132.7087	134.1075	141.2824	126.9788	120.5123	116.3977	114.3011	107.75	104.8584	100.5526	97.5522	97.2595	95.096	96.8149	98.2233	99.6608	101.1118	101.1844	98.4366	96.0838	91.4549	87.4723	82.3822	78.4694	74.5142	68.752	62.7464	57.5633	52.9562	48.6583	44.8557	42.0803	39.0059	35.911	33.6099	30.9687	28.7225	26.6173	24.2884	21.5701	19.5353	18.0711	16.6407	15.3732	14.12	13.3327	11.8541	10.4716	9.4089	6.3064	6.0858	6.072
540	134.1083	132.3857	133.968	134.9159	123.1211	116.4187	112.5746	109.6953	107.4235	101.6291	97.216	94.0295	93.3693	92.4478	92.2439	94.2263	95.3464	96.0256	97.9501	96.5047	92.7803	88.6919	83.8107	79.7084	75.7147	71.0906	66.8504	61.3882	56.2912	51.8918	47.9432	43.3524	40.6956	37.8288	35.4395	32.8182	30.4372	28.0796	25.8305	23.3821	21.4416	19.3306	17.814	16.3611	15.1447	13.8998	13.4219	11.9966	10.6498	9.6443	6.8783	5.0489	5.0374
542	126.5154	127.5844	125.3923	123.1756	129.1553	112.4669	108.4258	105.206	106.1988	99.6762	95.1632	93.1033	91.779	89.2958	91.2163	90.5733	92.6284	93.6682	92.2696	92.3343	90.2435	86.5466	81.9296	76.4895	73.0329	69.6526	65.1442	59.7122	54.7889	49.689	47.116	43.0843	40.1995	37.2269	34.8161	32.1784	30.6147	27.6052	25.6382	23.3014	21.0796	18.711	17.5862	16.1788	14.9174	13.7021	12.8657	11.9965	10.6216	9.7192	7.7346	4.8091	4.7981
544	140.2355	126.555	111.8232	99.1371	123.3433	108.361	103.6484	100.5527	101.691	95.8963	93.927	90.5254	88.44	86.2405	87.9557	88.2333	89.651	89.0853	89.9711	88.618	85.9059	83.8053	79.1584	74.37	71.1149	67.6224	62.7476	59.118	53.0598	49.0411	44.6892	41.7397	39.2809	36.3616	33.5946	31.4293	29.2784	26.8993	24.5587	23.0025	20.6549	18.832	17.3445	15.9845	14.6297	13.4928	12.4381	11.7826	10.6	9.7124	8.2848	5.2931	5.2811
546	144.0221	127.765	110.8278	101.482	122.387	104.0435	98.6487	97.636	97.9105	93.558	88.0002	86.8127	87.2108	84.9156	84.2572	85.652	86.9605	87.5289	85.8194	85.394	83.1644	79.7406	76.0036	71.8607	68.1229	65.9005	61.7632	56.6082	51.2734	47.8952	44.5141	40.7354	38.4934	35.0364	33.2954	30.8158	28.5934	26.5112	24.501	22.4371	20.546	18.6231	17.0795	15.7216	14.3199	13.2648	12.2955	11.7715	10.3765	9.2321	8.2861	6.0409	6.0271
548	130.7036	124.3421	107.638	103.7981	114.1069	99.5254	97.2745	94.5344	93.9469	91.4175	87.687	84.3007	82.978	83.6351	81.3356	82.0071	83.2037	83.3316	83.044	82.5325	79.776	77.4444	73.3235	69.4851	66.5705	63.5473	59.6303	54.8328	50.6724	46.86	43.1069	39.4885	37.4375	34.9698	32.1994	29.9658	27.7791	25.8749	23.6115	22.0232	20.0394	17.9042	16.7919	15.4134	14.0903	13.0187	12.1298	11.7403	10.5206	9.6403	8.3724	6.8004	6.7849
550	136.2427	120.7962	107.2256	106.1419	109.9905	99.8934	93.9811	91.3271	89.8592	88.559	83.77	83.0907	80.8554	77.6249	79.6551	79.1376	80.0763	80.0523	81.123	78.6948	77.4017	73.8288	71.0036	67.1756	64.4487	61.2791	57.2587	53.8007	49.2844	45.0831	42.0168	37.8589	35.8448	33.4168	31.6388	29.1889	27.3776	25.2922	23.4797	21.2683	19.5899	18.2528	16.3763	15.0922	13.8501	12.781	11.956	11.3774	10.2779	9.4743	8.5203	7.2224	7.2059
552	134.5176	117.4677	110.0153	108.8277	107.553	99.7555	90.8405	87.8583	85.8943	84.853	81.6513	78.1798	77.4596	75.903	75.1438	77.5595	76.4588	76.798	78.0636	75.8674	74.452	73.1834	68.7432	65.7625	61.7077	58.6019	56.1862	51.4102	47.1711	43.9466	40.8561	37.7718	35.2706	32.8427	30.6757	28.6203	26.4046	24.6861	22.7727	20.9914	19.7906	17.852	16.5906	14.7996	13.6474	12.5783	11.8071	10.9684	10.0583	9.4285	8.378	7.2834	7.2668
554	123.5286	113.9869	106.8703	100.5655	94.9671	98.5546	87.5658	83.8336	81.7758	81.2714	77.8584	75.1393	76.4533	73.7588	72.7081	73.4289	74.1289	74.4359	74.1261	73.3293	71.0093	69.5834	64.6208	62.6199	60.2773	57.4952	53.4523	50.712	45.4195	42.6785	39.6436	36.0385	34.3689	31.7475	30.0436	27.8724	25.8628	23.9496	22.1003	20.6329	19.0648	17.4699	16.0171	14.4912	13.4515	12.3634	11.6481	10.7356	10.3369	9.2464	8.5828	7.7027	7.6851
556	115.9545	117.466	99.6582	84.4501	71.3871	93.0995	84.1892	79.6874	80.2517	78.7577	76.7825	74.4646	72.685	71.2196	71.7353	71.4221	71.9871	72.0062	72.4277	69.5521	68.4158	65.9239	64.3449	60.0924	57.6631	55.4603	51.7074	48.6711	44.7126	41.2778	38.109	35.38	33.0464	31.3277	29.0845	27.2432	24.8986	23.3209	21.9073	20.0373	18.4258	16.7638	15.7165	14.2776	13.2485	12.2147	11.4805	10.4947	9.7779	9.2719	8.4011	7.8552	7.8372
558	122.4424	119.9236	100.1515	83.3127	75.0533	98.8909	80.7059	80.1845	78.0696	76.1616	73.3204	71.4871	70.4144	68.6297	68.1677	70.1617	68.8094	68.9778	69.0798	67.4516	66.2863	64.7236	60.508	58.2877	55.9493	53.8411	50.9999	47.3049	43.3806	40.3704	37.1346	33.8801	32.0315	30.1799	27.8661	26.3191	24.3854	23.011	21.5386	19.9245	18.0272	16.7558	15.7771	14.7038	13.0379	12.0602	11.3009	10.2454	9.5064	9.1175	8.3691	7.5209	7.5037
560	126.5324	116.4136	97.3291	80.6034	78.8043	93.0479	83.3046	77.9739	75.7855	73.453	71.632	69.396	68.4424	67.2219	65.2	66.1912	66.4825	66.2829	67.4159	65.1591	63.4773	61.448	59.6023	56.3032	53.6067	51.8971	48.7616	45.2576	41.7054	39.088	36.5804	33.1643	31.1761	29.6226	27.3406	25.3437	24.2059	22.2564	20.581	19.294	17.3749	16.6625	15.106	14.2116	12.8148	11.8897	11.1106	9.9836	8.7711	8.7301	8.3064	7.2366	7.2201
562	113.821	105.5585	94.3758	81.2245	82.6371	92.9688	80.5035	75.6593	73.2416	70.6291	69.2281	67.2514	65.9989	64.2717	63.349	62.0909	62.8756	64.0741	63.8998	62.2838	62.0804	58.9369	56.4378	54.3175	52.822	50.0834	46.8897	43.8452	40.5304	37.646	35.1197	32.1918	30.3685	28.8124	26.4071	25.2092	23.0869	21.6143	20.0033	18.773	17.357	15.7967	14.8903	14.1362	12.5784	11.7052	10.8547	9.7089	8.6716	8.7324	7.9373	7.313	7.2963
564	113.7045	108.0857	91.2971	85.336	86.5556	86.9704	83.2345	73.2449	70.4356	67.694	65.7427	65.3942	63.3787	60.9128	62.3768	59.9892	61.8797	61.5701	60.0396	59.6517	58.8034	57.4228	54.3305	52.0385	50.035	49.2192	46.4057	42.6889	38.7335	36.4091	33.7267	30.7484	29.3234	27.8851	25.7307	24.3442	22.2648	21.2202	19.5713	17.8875	16.5397	15.2724	14.6731	13.9292	12.8127	11.51	10.5865	9.4729	8.5653	8.2527	7.7662	7.1609	7.1445
566	110.8586	103.1438	88.1484	85.5515	83.136	80.4735	84.2592	70.775	67.563	67.5508	64.262	62.5574	60.4146	58.9308	59.1452	58.8139	59.1052	59.707	59.0431	58.2041	55.6486	54.997	52.7036	50.3392	48.7	46.0023	43.9703	41.3767	38.1489	34.8219	32.6053	30.0547	28.5901	26.4	24.8197	23.4115	22.0219	20.3692	18.6038	17.808	16.475	15.0359	14.1904	13.3367	12.3667	11.3112	10.338	9.2575	8.4574	7.8308	7.6495	7.0108	6.9948
568	104.7585	105.7068	94.6871	82.7654	72.4687	63.1972	86.3274	68.2433	70.6376	65.8238	62.7466	60.4218	57.3594	56.5794	57.1013	56.4171	56.1405	56.4753	56.2692	55.3583	54.6426	52.8702	50.1068	48.4769	46.9185	45.414	42.7013	39.7268	36.4991	33.7922	31.4813	29.0326	27.5494	26.1682	24.2197	22.678	21.037	19.5584	18.7008	17.343	15.6261	14.7649	13.6478	12.5851	11.9766	11.1079	10.1359	9.0368	8.3475	7.657	7.6952	6.7487	6.7333
570	96.9871	103.6833	99.0318	85.3511	73.5685	68.5526	87.0887	74.5159	68.9634	64.0135	61.1556	58.577	57.1695	55.1767	54.4535	54.5747	54.1682	54.8696	52.9474	53.0069	52.2395	50.0066	48.9685	46.9018	45.4967	43.6279	41.1344	38.5183	35.1326	32.7158	30.7256	27.8349	26.6821	25.1351	23.5026	21.6362	20.0113	19.4733	18.2841	16.6619	15.2211	14.2732	13.7729	12.6882	11.9333	10.8267	9.9226	8.9291	8.2149	7.4741	7.2887	6.7998	6.7843
572	87.2866	97.141	92.7614	85.4742	73.5918	74.2168	86.8842	77.5629	67.3535	62.4444	59.6178	56.5091	54.7668	53.7166	53.1747	52.3004	52.7404	52.6068	52.3343	51.78	49.7777	48.5985	46.3811	44.8082	43.4097	42.4494	39.6154	36.8529	34.5222	32.0452	29.71	27.2023	25.626	24.1463	22.8929	21.6933	19.6866	18.7972	17.3876	16.3367	15.0705	13.7942	13.3446	12.0666	11.8266	10.6229	9.7191	8.833	8.0609	7.2978	6.9128	6.6207	6.6056
574	93.9167	97.0114	93.0654	85.5508	76.6783	80.0503	89.9872	79.0886	65.65	60.9789	57.9934	54.0416	52.2116	50.398	50.8065	51.3484	50.1546	50.6083	49.7155	49.6003	48.6469	47.1118	45.707	43.6101	42.2791	40.4729	38.8769	36.007	33.2614	30.6488	28.7478	26.5703	25.0358	23.2853	22.4747	20.6899	19.5689	18.103	17.1894	15.6167	14.4726	13.6696	12.7327	11.8894	11.2922	10.1704	9.503	8.6968	7.8968	7.1112	6.2999	6.575	6.56
576	93.0601	92.7403	97.6019	85.5796	82.9979	86.0534	90.1825	79.2906	63.8521	59.4294	57.5945	52.5822	50.4312	48.8825	49.3483	47.608	48.7489	48.6808	48.3966	46.8354	46.7362	44.6832	43.5939	42.1222	40.6924	39.3434	37.0851	34.061	31.8532	29.817	27.9115	25.8236	24.4477	23.2088	21.398	20.4057	18.7774	17.8543	16.2969	15.6197	14.1828	13.3361	12.4582	12.0595	10.7845	9.73	9.2741	8.5349	7.7138	6.9143	6.1634	6.1942	6.1801
578	96.1398	96.0027	94.4117	85.5605	84.2187	82.4631	82.3269	80.5937	61.9604	60.989	54.4392	51.0459	49.7336	47.5145	48.3783	47.0666	46.9887	46.7289	46.3253	45.7576	45.133	43.1763	41.5622	39.9578	39.3246	37.6439	36.6679	33.7242	31.3936	28.475	26.6908	25.1429	23.5504	22.23	20.9179	19.3003	18.2295	16.8954	16.0903	15.2374	13.7884	13.2747	12.2158	11.2542	10.6412	9.8787	8.9954	8.3629	7.5204	6.7466	6.019	6.0719	6.0581
580	88.0347	87.0065	94.7902	86.671	80.8516	75.3109	71.7596	86.5382	65.4461	57.9801	51.1577	49.4339	47.028	46.2743	45.2485	46.19	44.0888	45.0852	44.5333	44.1255	43.9519	41.7717	40.5088	39.0808	37.7336	36.2457	34.6648	32.5404	30.2655	28.4165	25.9552	24.1145	22.8641	21.3191	20.2599	19.0808	18.1483	16.5196	15.7976	14.3409	13.3942	12.28	11.4702	11.4247	10.3742	9.6096	9.1721	8.1809	7.3368	6.5901	5.8667	5.7065	5.6935
582	96.256	82.1585	83.8996	87.2022	81.4069	75.8826	74.9128	86.7613	66.0388	54.8663	48.6925	47.7602	45.7213	44.6185	43.4903	44.2755	43.7898	43.2101	43.549	42.9064	41.7216	40.9315	38.5524	37.5142	36.2641	35.2653	33.1654	30.9662	29.1735	27.3855	25.9148	23.4138	21.7329	20.6766	19.734	18.0531	17.14	16.3192	15.5296	14.2345	13.0641	12.2281	11.6493	10.9003	10.0514	9.4459	8.636	7.9912	7.1866	6.4271	5.7082	4.9951	4.9838
584	87.4885	80.0817	86.8604	87.3829	82.044	76.4823	78.1341	88.7359	69.8564	51.6296	47.0677	46.0096	44.5204	43.0955	42.2361	42.6747	42.5835	42.2648	41.2377	41.7239	39.7695	39.4925	37.7809	36.3499	35.5748	34.4133	32.4093	30.326	27.7824	25.9403	24.2038	22.3292	21.6441	19.9002	19.1452	17.7109	16.6682	15.502	14.427	13.8936	12.59	11.7008	11.0651	10.3527	9.958	8.8913	8.3917	7.7431	7.0278	6.2718	5.5417	4.6246	4.4133
586	88.507	80.036	76.6943	90.0719	82.6464	78.4498	81.4107	90.6631	75.7251	48.2626	45.3621	46.1233	42.7156	41.7199	41.2837	40.7706	40.4601	40.698	40.0246	38.406	38.3056	37.7487	36.569	34.9615	33.9742	32.5622	31.6534	29.4326	26.8768	25.4149	23.3624	21.7708	20.8022	19.6617	18.5009	17.4145	16.2177	15.322	14.5045	13.231	12.2498	11.9749	10.6152	10.1294	9.6741	8.8996	8.6414	7.6833	6.8595	6.1076	5.388	4.2395	3.9454
588	76.0849	81.156	79.0328	88.0225	83.2146	81.8531	84.7418	89.9076	72.5753	44.7682	46.7359	42.6633	40.8302	40.3181	40.2802	38.9289	39.5002	39.2561	38.5588	38.3625	37.665	36.3127	35.1607	33.616	33.0986	31.3536	29.6649	27.7732	26.3545	24.2007	23.2357	21.6561	20.2267	19.3467	17.6427	16.9056	15.9739	14.7808	13.9485	12.8957	11.8244	11.0258	10.3642	9.7012	9.2166	8.7542	8.5539	7.5222	6.6817	5.9455	5.2374	3.84	2.3192
590	79.7762	78.5774	79.8462	82.6962	83.762	82.1318	82.0989	84.4879	74.4754	47.3369	43.3994	39.0868	38.8718	37.802	37.1682	37.941	37.2798	37.0438	36.9395	35.6222	36.1525	34.8777	33.7732	32.8773	31.548	30.6294	28.8505	27.5399	25.7362	23.3077	22.2667	20.2934	19.7977	18.2675	17.0206	16.1748	14.9165	14.341	13.4754	12.2282	11.4513	10.999	10.1398	9.6047	9.2227	8.706	8.0208	7.5282	6.4956	5.7983	4.9623	3.4268	0
592	85.6068	72.2497	81.0036	80.211	90.2422	83.359	78.7819	76.8931	74.3405	49.0978	40.0969	36.3917	36.9748	36.8006	35.8225	35.9045	37.0537	36.5745	35.5355	35.6328	34.9221	33.6741	32.3607	31.1544	30.4262	29.874	28.0791	26.2976	24.2809	22.519	21.5848	19.6944	18.8241	17.6316	16.6996	15.7949	14.6374	13.9973	12.9639	11.8876	11.5465	10.5534	9.8904	9.0712	8.6912	8.4184	7.6708	7.1686	6.3967	5.6646	4.5744	3.3268	0
594	81.7159	79.9004	76.618	81.5894	89.8905	83.7803	78.7877	76.733	77.3374	48.3001	36.6537	34.4612	34.9862	35.3664	35.4985	36.5048	35.0967	34.6148	33.9616	33.8963	33.5447	32.2031	31.1948	30.2975	29.256	28.4423	27.2419	25.7029	23.7999	22.3929	21.0757	19.3339	17.8372	16.9748	15.8527	15.065	14.1986	13.5014	12.6836	11.9702	10.8731	10.2501	9.4903	9.1781	8.6908	8.1068	7.4823	7.2643	6.634	5.5223	4.3762	0	0
596	86.8012	79.2615	69.2442	84.4704	91.9707	83.3481	78.9593	76.5512	77.5467	50.5929	33.0849	32.4558	34.0061	34.3488	34.2561	33.6557	33.8087	34.4855	33.7178	33.2044	32.4237	31.5967	30.5087	28.977	29.5026	27.9295	26.1145	24.7869	23.2347	21.2721	20.0317	18.3668	17.7539	16.6621	15.879	14.6121	13.646	12.8353	12.1244	11.6797	10.4379	10.311	9.7942	8.8867	8.3457	7.9529	7.3841	7.0578	6.0259	5.3738	4.4037	0	0
598	79.1463	72.5105	74.2757	78.0828	90.184	83.8986	78.7549	76.3455	78.504	46.2305	29.3856	31.9499	32.9478	33.287	33.0423	32.5336	33.0076	32.7637	33.2077	31.8032	31.8494	30.0735	29.5957	28.1477	27.1133	26.8119	26.1344	23.9822	22.2476	20.986	19.3336	18.2138	17.2634	16.5297	15.8192	14.181	13.7395	12.8881	11.9644	11.1182	10.1764	9.579	9.1747	8.7193	8.3819	7.7707	7.1289	6.7851	6.1829	5.6099	0	0	0
600	79.272	75.0715	76.6001	86.2361	91.1571	83.6256	78.491	76.0821	76.6947	49.503	29.3331	30.8588	31.8301	32.1656	32.4651	31.3519	30.7585	31.4749	31.2564	30.585	30.5492	29.6592	28.9158	26.7954	26.7075	26.0445	24.5989	24.0373	21.4506	20.0902	18.4108	17.5325	16.5558	15.5161	15.1707	13.8158	13.1929	12.0411	11.3096	10.9381	9.9653	9.4382	8.6265	8.5404	8.0699	7.5274	7.3057	6.6247	5.9022	5.5595	0	0	0
