Description	EOS (clean blank)																																																				
EEM type	"Dilution- & Scatter-corrected, Calibrated Data (ppb QSE)"																																																				
Scan date	10/1/2010 15:27																																																				
Excitation	240-500nm by 5nm																																																				
Emission	290-600nm by 2nm																																																				
Calibration	Michael_Fluoromax4_April08 (07-Apr-2008)																																																				
Slit settings	"5nm Excitation, 5nm Emission"																																																				
Dilution	50																																																				
Row 1	Excitation(nm)																																																				
Col 1	Emission(nm)																																																				
Data	Fluorescence(ppb QSE)																																																				
																																																					
	240	245	250	255	260	265	270	275	280	285	290	295	300	305	310	315	320	325	330	335	340	345	350	355	360	365	370	375	380	385	390	395	400	405	410	415	420	425	430	435	440	445	450	455	460	465	470	475	480	485	490	495	500
290	1281.6456	1300.4721	1022.3605	771.8141	559.1534	375.4278	222.8606	89.9382	60.6767	31.0534	0	0	0	0	0	0	0	0	0	0	0	0	0	0	0	0	0	0	0	0	0	0	0	0	0	0	0	0	0	0	0	0	0	0	0	0	0	0	0	0	0	0	0
292	1425.4704	1446.8782	1234.1242	870.9101	651.3889	461.2722	288.6275	113.5876	57.1744	30.189	6.2205	0	0	0	0	0	0	0	0	0	0	0	0	0	0	0	0	0	0	0	0	0	0	0	0	0	0	0	0	0	0	0	0	0	0	0	0	0	0	0	0	0	0
294	1511.9012	1541.9663	1279.9986	968.1807	741.9252	511.4891	305.4148	136.7269	84.8555	31.6916	12.3068	0	0	0	0	0	0	0	0	0	0	0	0	0	0	0	0	0	0	0	0	0	0	0	0	0	0	0	0	0	0	0	0	0	0	0	0	0	0	0	0	0	0
296	1623.4779	1654.2401	1449.9227	1062.1207	774.1543	526.1959	279.8888	159.1388	115.1079	33.109	18.2342	0	0	0	0	0	0	0	0	0	0	0	0	0	0	0	0	0	0	0	0	0	0	0	0	0	0	0	0	0	0	0	0	0	0	0	0	0	0	0	0	0	0
298	1967.835	2020.7933	1654.1929	1233.0908	786.0532	539.6348	254.5914	180.7229	123.6381	34.4339	11.9851	0	0	0	0	0	0	0	0	0	0	0	0	0	0	0	0	0	0	0	0	0	0	0	0	0	0	0	0	0	0	0	0	0	0	0	0	0	0	0	0	0	0
300	2188.6624	2212.5215	1885.5877	1320.7895	797.3139	509.2893	252.5421	201.6598	131.8862	64.0687	5.9071	0	0	0	0	0	0	0	0	0	0	0	0	0	0	0	0	0	0	0	0	0	0	0	0	0	0	0	0	0	0	0	0	0	0	0	0	0	0	0	0	0	0
302	2275.0921	2490.1309	2044.7385	1433.9059	821.26	487.4758	277.1925	204.519	142.1155	90.6319	0	0	0	0	0	0	0	0	0	0	0	0	0	0	0	0	0	0	0	0	0	0	0	0	0	0	0	0	0	0	0	0	0	0	0	0	0	0	0	0	0	0	0
304	2515.6045	2434.6683	2100.3452	1515.0664	847.5562	465.6161	301.9532	207.3867	152.3824	97.581	25.323	0	0	0	0	0	0	0	0	0	0	0	0	0	0	0	0	0	0	0	0	0	0	0	0	0	0	0	0	0	0	0	0	0	0	0	0	0	0	0	0	0	0
306	2399.6511	2459.0808	2077.8385	1470.7701	817.4533	443.4863	304.9082	213.8648	162.6053	104.502	37.0547	0	0	0	0	0	0	0	0	0	0	0	0	0	0	0	0	0	0	0	0	0	0	0	0	0	0	0	0	0	0	0	0	0	0	0	0	0	0	0	0	0	0
308	2363.1882	2367.1533	1988.2895	1399.2915	814.5395	421.1212	307.7145	223.9599	173.9779	111.3847	39.4471	0	0	0	0	0	0	0	0	0	0	0	0	0	0	0	0	0	0	0	0	0	0	0	0	0	0	0	0	0	0	0	0	0	0	0	0	0	0	0	0	0	0
310	2245.7227	2316.9441	1873.5367	1370.5083	797.4556	401.2793	310.5243	234.0722	185.3708	118.278	49.8276	0	0	0	0	0	0	0	0	0	0	0	0	0	0	0	0	0	0	0	0	0	0	0	0	0	0	0	0	0	0	0	0	0	0	0	0	0	0	0	0	0	0
312	2260.2484	2335.3581	1859.7459	1351.1098	795.9704	408.7743	311.4359	243.9143	193.303	124.4259	59.8632	0	0	0	0	0	0	0	0	0	0	0	0	0	0	0	0	0	0	0	0	0	0	0	0	0	0	0	0	0	0	0	0	0	0	0	0	0	0	0	0	0	0
314	2211.7013	2130.2871	1794.1715	1334.2833	788.9831	391.9674	312.3189	253.64	198.8626	133.6855	69.7914	0	0	0	0	0	0	0	0	0	0	0	0	0	0	0	0	0	0	0	0	0	0	0	0	0	0	0	0	0	0	0	0	0	0	0	0	0	0	0	0	0	0
316	1978.247	2090.5903	1764.47	1287.837	734.1621	384.2618	319.0455	262.3718	203.6711	142.3658	79.3481	13.6766	0	0	0	0	0	0	0	0	0	0	0	0	0	0	0	0	0	0	0	0	0	0	0	0	0	0	0	0	0	0	0	0	0	0	0	0	0	0	0	0	0
318	2016.7451	1955.4836	1655.8236	1183.6049	703.9716	370.9049	303.9162	269.999	210.7184	150.3227	88.4313	27.0295	0	0	0	0	0	0	0	0	0	0	0	0	0	0	0	0	0	0	0	0	0	0	0	0	0	0	0	0	0	0	0	0	0	0	0	0	0	0	0	0	0
320	1813.4431	1778.2169	1506.3404	1085.9045	678.8924	344.7501	305.3152	277.3617	217.5328	157.9989	90.7369	40.058	0	0	0	0	0	0	0	0	0	0	0	0	0	0	0	0	0	0	0	0	0	0	0	0	0	0	0	0	0	0	0	0	0	0	0	0	0	0	0	0	0
322	1619.4793	1605.8738	1354.8327	1018.6821	605.2243	326.3801	292.8389	272.7082	223.0704	164.6708	92.5264	52.517	10.6943	0	0	0	0	0	0	0	0	0	0	0	0	0	0	0	0	0	0	0	0	0	0	0	0	0	0	0	0	0	0	0	0	0	0	0	0	0	0	0	0
324	1457.1708	1427.5842	1259.5472	945.3907	560.6116	313.748	281.6098	258.3676	228.2876	164.9552	98.7452	64.5276	21.0232	0	0	0	0	0	0	0	0	0	0	0	0	0	0	0	0	0	0	0	0	0	0	0	0	0	0	0	0	0	0	0	0	0	0	0	0	0	0	0	0
326	1356.1408	1311.2862	1136.8907	833.8247	530.935	307.879	270.791	273.9146	233.0807	165.0548	109.1082	68.2293	30.9724	0	0	0	0	0	0	0	0	0	0	0	0	0	0	0	0	0	0	0	0	0	0	0	0	0	0	0	0	0	0	0	0	0	0	0	0	0	0	0	0
328	1247.5725	1210.6083	1055.0526	765.0919	492.7363	278.6826	261.1959	247.5284	233.9597	164.9655	118.9749	71.7198	40.5276	8.0362	0	0	0	0	0	0	0	0	0	0	0	0	0	0	0	0	0	0	0	0	0	0	0	0	0	0	0	0	0	0	0	0	0	0	0	0	0	0	0
330	1129.8336	1091.3674	913.5592	691.2033	462.4523	267.1383	262.1443	253.4765	230.3168	164.7592	121.1713	77.5378	49.6974	15.7665	0	0	0	0	0	0	0	0	0	0	0	0	0	0	0	0	0	0	0	0	0	0	0	0	0	0	0	0	0	0	0	0	0	0	0	0	0	0	0
332	995.8691	1020.9758	848.3335	627.7993	412.9366	274.4109	234.5245	234.7526	227.3924	162.6696	121.8696	84.6205	51.7539	22.9424	0	0	0	0	0	0	0	0	0	0	0	0	0	0	0	0	0	0	0	0	0	0	0	0	0	0	0	0	0	0	0	0	0	0	0	0	0	0	0
334	917.2196	904.3498	746.5182	572.5843	383.7964	252.184	220.5217	220.3214	220.4914	172.7545	122.2975	91.1208	53.5899	29.6459	7.5899	0	0	0	0	0	0	0	0	0	0	0	0	0	0	0	0	0	0	0	0	0	0	0	0	0	0	0	0	0	0	0	0	0	0	0	0	0	0
336	813.1565	731.737	665.7072	516.2678	357.2762	240.4039	212.9978	217.9353	197.4294	171.3595	122.5798	91.5441	57.1711	35.9129	14.7114	0	0	0	0	0	0	0	0	0	0	0	0	0	0	0	0	0	0	0	0	0	0	0	0	0	0	0	0	0	0	0	0	0	0	0	0	0	0
338	721.4933	714.8573	564.6144	454.279	316.2334	221.0713	204.7501	207.8265	204.8234	171.4831	122.7291	91.8552	62.3308	42.1865	21.3864	0	0	0	0	0	0	0	0	0	0	0	0	0	0	0	0	0	0	0	0	0	0	0	0	0	0	0	0	0	0	0	0	0	0	0	0	0	0
340	616.222	619.2795	508.4029	423.4667	297.7148	215.1528	199.562	196.1983	192.3754	160.8255	127.2762	91.964	67.0476	47.9888	27.6068	10.5307	0	0	0	0	0	0	0	0	0	0	0	0	0	0	0	0	0	0	0	0	0	0	0	0	0	0	0	0	0	0	0	0	0	0	0	0	0
342	568.669	563.5095	476.1962	392.274	273.6024	211.3848	195.3719	203.0654	193.2446	166.7131	131.51	92.3728	72.1058	53.4783	33.5544	20.4813	2.7276	0	0	0	0	0	0	0	0	0	0	0	0	0	0	0	0	0	0	0	0	0	0	0	0	0	0	0	0	0	0	0	0	0	0	0	0
344	495.7365	516.8154	415.5285	342.5657	254.6918	203.9511	197.4998	190.8107	190.5814	162.6019	136.5736	92.6115	76.7691	58.4503	43.8593	29.8508	13.6334	3.1491	0	0	0	0	0	0	0	0	0	0	0	0	0	0	0	0	0	0	0	0	0	0	0	0	0	0	0	0	0	0	0	0	0	0	0
346	468.8868	424.795	420.7214	333.5159	252.2161	192.5	186.2073	185.6541	182.7267	158.6439	140.6663	101.7224	81.2505	63.2064	53.6469	38.74	22.5126	6.904	0	0	0	0	0	0	0	0	0	0	0	0	0	0	0	0	0	0	0	0	0	0	0	0	0	0	0	0	0	0	0	0	0	0	0
348	471.6247	441.2975	375.2281	294.5397	238.7126	206.5571	190.9869	193.2684	186.4476	167.9554	146.0033	116.762	85.6012	72.2802	62.3619	47.2244	30.968	18.1632	6.2778	0	0	0	0	0	0	0	0	0	0	0	0	0	0	0	0	0	0	0	0	0	0	0	0	0	0	0	0	0	0	0	0	0	0
350	478.465	409.8432	353.3492	297.3326	237.9158	195.8264	194.1643	187.9244	191.3607	171.6708	142.138	117.6287	89.625	80.8111	69.9401	54.8013	38.9641	25.3643	15.0437	4.9123	0	0	0	0	0	0	0	0	0	0	0	0	0	0	0	0	0	0	0	0	0	0	0	0	0	0	0	0	0	0	0	0	0
352	440.0212	396.6052	352.0402	288.7652	241.7743	194.3354	192.7884	194.8857	189.0534	172.9554	157.5292	125.5745	110.7659	88.8168	77.0534	61.9307	46.5098	31.0943	19.6823	9.7815	0	0.4283	0.4861	0	0	0	0	0	0	0	0	0	0	0	0	0	0	0	0	0	0	0	0	0	0	0	0	0	0	0	0	0	0
354	429.6348	365.2519	316.6405	278.1118	219.5155	199.4415	193.8959	190.7725	190.1731	179.0798	155.4928	135.4439	116.0057	96.2824	83.2867	68.6031	57.6032	44.9353	29.2388	17.3177	4.9589	1.2505	0.9461	0	0	0	0	0	0	0	0	0	0	0	0	0	0	0	0	0	0	0	0	0	0	0	0	0	0	0	0	0	0
356	400.4365	380.406	301.4761	257.6137	221.4256	198.8409	201.4581	198.9428	188.6708	178.7989	162.7943	144.3882	132.3426	103.5627	93.2637	82.8924	71.8849	58.1759	41.5838	25.1074	14.0191	2.0337	1.3848	0	0	0	0	0	0	0	0	0	0	0	0	0	0	0	0	0	0	0	0	0	0	0	0	0	0	0	0	0	0
358	380.9714	348.2501	293.9325	260.518	238.5702	205.7935	205.6842	204.9158	200.9191	181.7281	171.1249	154.8867	144.9629	120.0341	106.8233	96.7387	85.1472	70.9622	55.6219	34.2283	23.3038	2.7863	0.9034	0	0	0	0	0	0	0	0	0	0	0	0	0	0	0	0	0	0	0	0	0	0	0	0	0	0	0	0	0	0
360	418.5878	342.1619	313.6644	273.0635	239.3119	211.8206	203.5587	205.7155	208.7498	195.1129	182.9208	168.3579	152.0647	132.4635	119.7111	109.3713	97.7704	83.1425	69.031	49.087	29.2649	14.6176	0.4418	0	0	0	0	0	0	0	0	0	0	0	0	0	0	0	0	0	0	0	0	0	0	0	0	0	0	0	0	0	0
362	428.9061	353.1051	317.5813	270.5529	240.7881	226.7736	223.3527	212.3724	213.3073	202.8348	194.3928	179.0739	168.8915	152.0503	132.8587	121.9437	109.772	97.3734	82.3723	56.6833	36.6864	21.1845	0	1.8827	2.1709	0	0	0	0	0	0	0	0	0	0	0	0	0	0	0	0	0	0	0	0	0	0	0	0	0	0	0	0
364	461.4789	378.8345	327.916	278.132	261.9412	236.6387	233.3679	227.1835	223.2649	213.8148	207.6473	193.8752	183.4874	165.2751	152.8876	134.0755	121.3559	115.0448	95.2695	70.649	47.3738	32.1148	14.1719	5.5598	4.2737	0	0	0	0	0	0	0	0	0	0	0	0	0	0	0	0	0	0	0	0	0	0	0	0	0	0	0	0
366	451.2514	366.2781	331.1199	289.0198	258.1646	244.787	238.7217	237.1203	239.8554	220.6505	224.2764	207.2786	196.7086	187.2765	168.6592	145.8866	136.4878	132.2281	107.811	84.4045	58.7369	40.1165	25.236	9.1268	6.3138	1.333	0	0	0	0	0	0	0	0	0	0	0	0	0	0	0	0	0	0	0	0	0	0	0	0	0	0	0
368	456.5671	391.463	343.6977	317.5025	286.5844	261.5628	258.5095	248.508	250.298	233.9029	233.4963	222.9248	218.0031	200.1812	189.9657	157.4107	153.1378	144.1652	120.3428	97.7951	72.2985	47.146	29.4837	12.5926	7.2245	2.6272	0	0	0	0	0	0	0	0	0	0	0	0	0	0	0	0	0	0	0	0	0	0	0	0	0	0	0
370	482.0473	421.1469	372.7088	308.6115	292.6307	267.2155	265.6034	263.9777	258.8581	251.1206	243.9447	237.6827	237.1488	219.1375	207.21	188.5737	169.2508	155.6996	133.081	110.7624	88.2801	59.4959	40.0803	20.9651	8.1056	3.8827	0	0	0	0	0	0	0	0	0	0	0	0	0	0	0	0	0	0	0	0	0	0	0	0	0	0	0
372	526.1781	429.8618	384.208	338.8156	316.3503	284.7722	282.6207	276.6287	278.3253	268.0625	263.4019	256.531	246.7263	241.7643	225.7331	210.6453	185.7775	168.3026	146.1398	128.5666	105.2079	71.2967	49.3296	32.5319	9.003	6.8721	3.5382	0	0	0	0	0	0	0	0	0	0	0	0	0	0	0	0	0	0	0	0	0	0	0	0	0	0
374	552.5127	467.6349	395.9771	355.2906	332.494	302.3738	299.4687	297.7624	288.1154	288.5078	283.8582	279.7012	273.737	264.3334	248.247	230.551	201.9521	185.5742	168.1523	150.5923	121.7925	88.4384	58.8932	40.5442	21.932	11.5305	7.006	0	0	0	0	0	0	0	0	0	0	0	0	0	0	0	0	0	0	0	0	0	0	0	0	0	0
376	557.8357	484.2985	413.8596	376.5251	358.3661	329.199	315.3424	306.9073	310.6411	297.2774	302.6126	297.6506	298.8222	283.4808	268.6899	251.9405	226.2293	206.8953	189.5483	169.3806	137.9131	102.585	72.0644	48.724	30.5036	16.0801	10.3942	2.9018	0	0	0	0	0	0	0	0	0	0	0	0	0	0	0	0	0	0	0	0	0	0	0	0	0
378	609.1548	496.6684	455.2848	414.6879	372.8151	352.0008	342.8296	331.259	330.7025	321.1741	323.311	321.2799	319.9764	310.1713	295.3293	274.0031	249.3797	227.5189	210.2652	187.5665	153.5232	120.258	85.0778	56.8388	42.5	20.5086	13.5114	5.7345	0	0	0	0	0	0	0	0	0	0	0	0	0	0	0	0	0	0	0	0	0	0	0	0	0
380	646.3846	537.658	478.9298	424.6593	404.0706	365.6932	359.3355	352.8888	352.4774	333.7991	348.2481	342.0335	345.1404	335.1883	318.3267	293.8052	274.6086	247.6029	227.8457	203.9278	168.7264	137.4877	98.0539	70.8622	52.1255	30.1204	16.5504	8.4979	0	0	0	0	0	0	0	0	0	0	0	0	0	0	0	0	0	0	0	0	0	0	0	0	0
382	699.4171	599.9877	516.7662	443.7348	419.3352	396.1654	377.4244	373.9167	360.5727	360.7758	360.0205	371.2733	367.468	356.0719	346.5894	324.6968	301.0737	268.3703	246.0685	219.5101	188.3524	154.9783	118.467	84.8128	60.6348	40.3662	19.6	12.2735	4.4911	0	0	0	0	0	0	0	0	0	0	0	0	0	0	0	0	0	0	0	0	0	0	0	0
384	713.3226	609.9871	529.7249	487.4703	440.8345	416.9404	405.9971	384.9968	385.7197	377.4588	383.5146	391.6819	393.2329	381.0975	369.0883	347.8616	324.4708	290.1598	263.994	234.835	207.6693	172.1931	134.9324	99.1412	68.8675	47.8779	27.0794	17.0122	8.9126	0	0	0	0	0	0	0	0	0	0	0	0	0	0	0	0	0	0	0	0	0	0	0	0
386	759.6257	639.6587	552.6825	495.6399	463.3681	440.5224	412.8359	417.4581	401.4052	398.8021	399.2159	413.1057	420.9187	401.028	392.2584	367.1939	345.8928	318.5256	282.6781	254.8413	226.517	189.8389	151.7013	114.7201	83.2584	59.2019	36.1115	21.7562	13.3139	3.6507	0	0	0	0	0	0	0	0	0	0	0	0	0	0	0	0	0	0	0	0	0	0	0
388	750.3284	690.4349	578.0244	517.5898	481.6224	466.6344	442.782	428.0912	419.8249	414.7547	424.0594	434.8243	438.9103	430.982	416.4024	395.3045	368.852	335.0367	302.3438	275.7212	245.127	207.6073	168.9677	130.0045	98.1011	68.9127	43.9049	26.559	17.3181	7.2981	0	0	0	0	0	0	0	0	0	0	0	0	0	0	0	0	0	0	0	0	0	0	0
390	836.7167	710.7874	607.0234	549.1564	523.2969	482.7048	463.095	446.3273	437.7628	443.673	448.8536	457.3684	469.0416	463.5175	442.4222	417.8646	389.785	362.2007	323.3441	296.602	263.7356	225.3734	186.2314	149.8383	112.5708	79.1921	53.5754	33.9062	21.3189	10.9423	0	0	0	0	0	0	0	0	0	0	0	0	0	0	0	0	0	0	0	0	0	0	0
392	856.8497	729.1586	630.9941	574.7243	544.3327	513.1519	479.4007	468.0336	464.1743	463.6386	468.0107	485.9045	489.6623	481.8913	474.1168	443.9366	416.2651	386.8285	350.7793	315.5766	280.1265	241.6792	205.2701	167.5234	125.0225	90.2369	61.1533	40.6234	25.1654	14.5465	4.3163	0	0	0	0	0	0	0	0	0	0	0	0	0	0	0	0	0	0	0	0	0	0
394	891.3754	763.5643	685.3748	614.0968	553.8937	529.9709	515.9826	489.2431	477.4817	477.427	489.0509	507.1853	510.1165	509.5819	490.9126	469.0311	441.7817	414.5133	378.7779	334.297	299.4216	263.9043	226.5478	184.9812	144.4316	107.0008	71.9622	47.2178	28.7698	18.1532	8.5771	0	0	0	0	0	0	0	0	0	0	0	0	0	0	0	0	0	0	0	0	0	0
396	901.9936	810.6707	682.2104	636.6414	595.7385	558.5029	536.7838	517.5211	509.9517	502.8144	505.6966	523.7875	540.0193	536.2366	517.9011	491.4227	466.0273	440.1895	402.9823	363.6387	322.0708	286.2888	246.951	202.5255	159.3944	122.4434	84.5352	56.1843	33.6537	21.7454	12.8023	2.8695	0	0	0	0	0	0	0	0	0	0	0	0	0	0	0	0	0	0	0	0	0
398	936.4627	823.5609	730.8162	669.2457	631.4204	582.8587	550.9328	530.995	534.4105	519.7161	527.5	550.3328	567.4576	559.2748	551.9857	518.7814	501.1461	467.3043	430.0808	391.1498	345.043	307.9298	267.5759	220.2423	178.2174	135.9485	98.0767	64.7558	43.8431	25.3405	15.1785	5.7193	0	0	0	0	0	0	0	0	0	0	0	0	0	0	0	0	0	0	0	0	0
400	1021.8624	860.3081	762.7986	708.7843	650.2819	610.3618	578.9579	556.5148	552.1014	536.9298	553.6077	577.4469	583.2302	588.8282	571.7528	553.553	524.5312	494.3235	458.0621	414.394	367.8733	328.9302	285.4848	238.9118	196.9224	151.4119	112.176	74.7349	50.9453	29.8211	17.5379	8.5493	0	0	0	0	0	0	0	0	0	0	0	0	0	0	0	0	0	0	0	0	0
402	1065.7954	897.9348	786.4794	734.6893	685.5393	655.1012	607.7161	594.9944	564.5194	565.7847	569.9711	592.5157	616.7142	613.2461	599.8176	578.6072	555.1584	519.2167	481.9449	442.9484	402.4346	349.1947	302.7548	259.1436	215.1379	171.7085	128.2265	85.1935	58.1253	39.3513	19.8465	11.3597	3.3749	0	0	0	0	0	0	0	0	0	0	0	0	0	0	0	0	0	0	0	0
404	1137.629	931.1538	816.1454	752.7319	700.7585	677.0316	632.2399	592.9405	594.2189	581.9685	597.5363	612.2731	634.9309	635.6796	632.3425	604.3194	579.9532	553.3195	516.7883	474.0446	425.9176	369.2491	322.0112	279.1706	233.1679	186.3616	141.0899	101.1349	67.8081	45.8308	26.2383	14.1598	6.7148	0	0	0	0	0	0	0	0	0	0	0	0	0	0	0	0	0	0	0	0
406	1168.5539	972.1953	856.9204	775.8526	739.8037	699.5255	660.2173	623.0854	613.1339	605.6802	616.6997	635.0809	652.7705	661.0934	655.8787	636.6912	609.3134	576.9777	539.7734	501.6487	455.3314	389.8259	342.7897	297.5998	250.3148	201.2381	154.9122	111.8345	75.4891	54.1464	31.5548	16.9617	10.0384	1.9716	0	0	0	0	0	0	0	0	0	0	0	0	0	0	0	0	0	0	0
408	1179.6492	1016.3632	899.1525	820.3062	785.1007	742.1114	685.4753	649.4421	639.451	621.9346	631.5514	667.242	674.8511	689.5863	681.0255	666.1032	633.8961	604.1937	574.0891	531.0154	480.0331	417.3154	364.1255	316.5077	265.5204	216.4254	168.7091	125.5353	87.1851	61.0515	40.9561	19.7812	11.2549	3.9372	0	0	0	0	0	0	0	0	0	0	0	0	0	0	0	0	0	0	0
410	1203.2969	1034.2542	924.1447	856.5343	818.7144	758.4685	716.9725	678.0607	664.6259	665.2436	664.4848	675.4641	702.7443	711.5895	702.565	688.3498	667.383	636.6633	601.2972	550.9795	510.0268	450.8927	385.416	333.0035	280.6887	234.2816	185.2777	140.2549	99.3745	68.4723	47.3328	27.5395	12.4675	5.8966	0	0	0	0	0	0	0	0	0	0	0	0	0	0	0	0	0	0	0
412	1257.0066	1075.6192	960.3998	899.4628	832.0783	788.9753	741.1283	699.7995	672.0706	664.4102	680.469	707.524	722.0242	731.6728	733.5036	723.0839	687.8242	664.99	632.2718	591.8407	534.2868	481.7438	406.692	351.0639	301.2815	254.8193	201.8213	155.4499	110.5092	78.8889	53.9761	35.3613	13.6773	8.9107	3.5545	0	0	0	0	0	0	0	0	0	0	0	0	0	0	0	0	0	0
414	1276.5602	1077.1038	998.3083	921.3902	866.9484	810.5313	772.1761	711.0446	694.1034	680.3393	694.5083	715.3905	746.344	752.0722	753.4067	739.5496	720.5759	695.8418	659.9391	609.3843	560.7827	503.2785	434.436	371.8449	321.8327	271.263	218.3281	165.7245	124.6707	86.7549	63.4049	41.5779	23.888	12.9748	7.0988	0	0	0	0	0	0	0	0	0	0	0	0	0	0	0	0	0	0
416	1361.8482	1149.8753	1005.5844	925.8027	908.481	831.3848	780.9481	734.6779	720.8446	702.0935	713.3316	731.2037	759.7847	773.2237	777.79	770.1457	753.0403	720.611	685.8737	645.6616	590.6712	529.079	466.5714	393.4829	343.1262	288.3268	235.3342	182.7308	137.1643	99.1575	70.7143	47.7164	31.5261	17.0659	10.6571	2.6349	0	0	0	0	0	0	0	0	0	0	0	0	0	0	0	0	0
418	1348.8008	1155.3918	1054.9594	981.2216	931.8338	849.2617	810.3523	762.0458	731.2282	725.7666	717.3768	752.8898	781.2245	793.9804	804.712	797.2963	774.5805	745.9703	715.1171	674.0616	618.4869	555.0348	482.4125	416.1259	361.2055	306.1271	253.8779	198.7989	149.9131	112.0386	76.1227	56.2937	38.255	21.2118	13.2509	5.286	0	0	0	0	0	0	0	0	0	0	0	0	0	0	0	0	0
420	1425.4982	1210.9571	1116.5413	1005.1737	951.844	878.6311	836.3245	787.9181	756.7368	740.7631	744.5315	766.1635	798.0519	805.2567	824.4319	821.4184	805.2809	779.5055	748.8773	697.4369	646.1033	578.6993	515.0919	438.9251	380.3377	325.9002	272.1358	214.9738	163.3583	123.7435	88.4245	61.7875	45.439	27.3863	15.8604	7.9532	0	0	0	0	0	0	0	0	0	0	0	0	0	0	0	0	0
422	1468.0971	1230.6202	1121.2299	1055.0381	995.712	921.9256	861.299	810.5225	776.1607	754.4179	763.2078	788.3066	805.9048	833.6062	844.8472	847.0009	838.9063	810.6978	779.509	727.2143	672.661	606.5899	538.6982	466.7643	400.6324	345.8929	287.9015	231.3108	174.8861	132.4518	99.2375	71.548	53.4732	35.2005	18.49	11.1102	3.6677	0	0	0	0	0	0	0	0	0	0	0	0	0	0	0	0
424	1439.4019	1291.8963	1126.8566	1069.2301	1024.6395	945.5091	882.9673	825.318	786.3811	765.5318	782.5377	805.8653	830.1399	859.3454	863.4218	866.2374	857.4192	831.0064	796.1389	749.2081	700.3512	632.2785	553.0308	489.9066	421.0719	363.3287	303.7763	247.7627	189.4528	145.3992	107.0164	76.585	58.9873	39.6184	24.4976	14.7605	7.3596	0	0	0	0	0	0	0	0	0	0	0	0	0	0	0	0
426	1433.4682	1337.3148	1183.9428	1076.2582	1050.2274	960.6248	906.6774	844.0625	802.9235	785.9177	791.4099	825.6437	849.5249	864.001	883.9209	885.6724	883.0856	863.9817	824.6884	784.681	724.4362	657.0403	577.2233	507.7162	442.3768	380.1466	321.0302	263.0012	204.4517	159.4222	118.7365	87.947	64.593	47.9623	30.2322	18.4642	11.0937	3.471	0	0	0	0	0	0	0	0	0	0	0	0	0	0	0
428	1502.4439	1335.87	1205.4334	1114.722	1069.8203	995.9953	923.054	865.4282	825.2111	811.0171	806.988	831.6297	860.7527	885.1169	900.0619	905.6767	903.7931	891.7239	861.099	809.0425	750.2134	683.0643	604.7353	533.9684	461.835	397.7658	338.9973	275.2956	219.9519	169.1001	129.9796	98.2596	73.9159	54.4581	37.9384	22.239	15.5577	6.9871	0	0	0	0	0	0	0	0	0	0	0	0	0	0	0
430	1523.643	1346.0661	1225.5973	1162.5787	1074.2909	1020.3776	947.5055	882.9701	844.248	822.0526	826.8195	842.7721	875.5666	900.841	914.7887	936.4112	927.1858	910.8835	883.0142	835.6014	770.8827	701.3319	627.4545	558.2	483.8078	415.595	353.6201	287.7332	235.6458	183.6665	139.7211	107.2174	81.2887	59.8061	43.5358	26.6953	20.0787	10.5483	0	0	0	0	0	0	0	0	0	0	0	0	0	0	0
432	1498.8153	1419.3417	1247.7808	1159.8608	1120.6873	1047.6125	972.5032	905.5629	863.7166	833.936	831.7445	862.3543	884.7949	908.7461	929.895	945.5851	947.8681	937.623	905.423	861.5088	800.858	729.9539	652.3374	580.0542	510.5076	433.1557	366.2155	303.6259	250.963	198.1969	152.5415	116.3277	88.882	67.0509	49.8379	34.4397	24.6297	14.2717	4.2841	0	0	0	0	0	0	0	0	0	0	0	0	0	0
434	1551.0935	1423.1156	1298.6503	1208.8806	1125.9669	1051.8814	977.7145	927.0241	878.5874	833.4202	854.0543	868.2805	903.0523	930.195	954.5737	969.6407	964.422	957.404	927.6998	877.9395	821.8517	752.6267	674.5048	596.4456	530.0775	448.8275	378.931	319.6819	265.8487	212.8797	163.61	125.2476	99.1956	74.4455	56.4614	40.6991	26.0166	18.1672	8.6136	0	0	0	0	0	0	0	0	0	0	0	0	0	0
436	1607.166	1412.878	1286.8921	1202.037	1171.3873	1077.3229	1014.6198	922.3662	889.3432	865.6877	857.2105	877.9786	904.7563	944.8467	978.876	988.8284	991.4602	974.5945	957.1265	910.1397	838.2948	775.098	690.6281	611.7156	543.4304	469.1514	392.2728	335.7388	281.2481	228.0078	173.8119	135.5451	107.582	81.1185	62.0769	45.3874	31.24	22.1312	13.0053	3.5039	0	0	0	0	0	0	0	0	0	0	0	0	0
438	1590.0708	1445.7204	1337.0588	1246.2225	1188.3738	1093.9197	1023.7132	957.161	910.814	875.0974	864.8437	887.0666	919.4325	944.361	976.4843	997.3358	1016.8236	1004.4746	968.1052	932.533	870.3328	797.2001	712.9778	631.6629	558.6743	489.7405	406.2839	350.5566	294.0523	238.865	184.8482	145.6295	117.9281	89.9966	68.5004	51.37	34.3582	26.1787	17.0305	7.0623	0	0	0	0	0	0	0	0	0	0	0	0	0
440	1562.7037	1450.2685	1329.6365	1267.25	1199.1832	1126.3697	1045.004	963.3593	933.3635	883.0162	868.2808	906.2603	937.2488	962.9073	998.2027	1019.3272	1034.3173	1020.4343	996.0551	956.1175	887.9881	813.8584	729.4851	648.9979	578.4355	504.334	426.6869	360.7865	303.8391	247.5803	196.0391	156.4127	125.673	96.7709	73.8004	57.384	41.0379	28.3338	21.1165	10.6752	0	0	0	0	0	0	0	0	0	0	0	0	0
442	1623.3525	1489.9502	1333.4502	1270.2266	1214.3466	1125.2874	1050.2822	974.8886	935.9399	883.1018	881.0649	899.246	940.7422	982.9677	1007.3715	1024.5583	1040.8717	1034.7706	1014.3018	973.8955	911.3681	830.6853	747.6934	667.6887	589.658	523.4994	447.5869	370.8493	313.5023	254.8281	207.2241	162.1857	133.4277	104.8032	82.9617	62.3021	46.2121	32.9204	25.2438	14.3664	4.1856	0	0	0	0	0	0	0	0	0	0	0	0
444	1630.8047	1497.2825	1365.506	1311.495	1231.679	1139.9724	1072.0332	973.7158	930.6336	902.9043	886.9669	902.0323	943.8106	980.4931	1010.6654	1040.1242	1057.1474	1058.1123	1037.6616	992.7588	926.5945	852.8577	763.1561	680.8007	609.4352	538.0758	456.3445	381.0201	321.8917	262.1537	218.5488	172.6159	143.2232	114.1277	88.4583	68.6947	52.1763	38.0195	25.878	18.1422	8.4287	0	0	0	0	0	0	0	0	0	0	0	0
446	1677.2254	1459.0932	1397.8731	1303.3448	1250.1495	1175.2299	1073.4466	983.4441	939.6145	905.3437	900.9863	918.0582	952.8076	984.4447	1024.4017	1051.7346	1073.9597	1073.3608	1045.4225	1002.4969	945.478	866.7316	783.2399	693.8984	624.145	546.8878	474.2401	391.5536	329.8875	274.0451	228.3557	183.2956	153.7313	121.8992	95.6997	73.2928	55.9284	44.9449	29.9268	21.9822	12.7374	3.5023	0	0	0	0	0	0	0	0	0	0	0
448	1659.6064	1500.4401	1408.7652	1309.9586	1261.3712	1176.5398	1090.8476	1008.8864	958.4499	916.711	904.9557	938.8922	948.8388	990.1701	1029.6867	1057.827	1083.1478	1092.8055	1065.2298	1018.8257	970.9942	884.4701	794.6529	711.3472	629.8328	565.9595	485.3322	404.3752	338.1866	286.2737	234.7965	194.2433	160.7766	132.4009	106.8738	82.8353	63.1027	48.6553	35.0293	25.8936	16.816	7.0608	0	0	0	0	0	0	0	0	0	0	0
450	1653.4032	1519.2794	1374.6841	1322.3926	1281.0639	1185.8696	1097.0547	1029.3499	964.7359	913.9432	912.6026	922.1166	958.6567	997.3536	1034.6593	1069.8083	1087.5139	1090.0973	1084.8317	1034.5739	976.4181	897.4682	808.9077	721.238	646.3021	579.3164	495.6984	419.1722	346.5786	295.01	241.3124	205.3471	170.3995	139.1157	113.7803	89.1722	67.4338	54.5342	42.4915	28.0594	20.9582	10.6757	0	0	0	0	0	0	0	0	0	0	0
452	1675.2064	1521.959	1390.6847	1361.5531	1266.3876	1186.8292	1119.4208	1031.3527	983.9997	923.3142	936.5354	938.0699	975.1392	1006.8664	1038.1519	1076.27	1099.1368	1104.1237	1087.7948	1052.1702	988.3373	908.6729	818.4865	731.3587	654.5117	584.9177	505.8359	428.7575	355.2279	302.1457	252.9914	216.2667	180.2413	149.2797	120.8517	98.4483	76.2781	57.6387	46.8991	31.784	25.1755	14.505	4.387	0	0	0	0	0	0	0	0	0	0
454	1693.7648	1511.6838	1434.2565	1337.9298	1287.2484	1197.2526	1101.1846	1040.1015	971.6473	928.632	929.0256	936.9363	967.5249	994.9497	1045.1191	1089.9546	1092.9853	1107.3848	1105.4711	1052.4878	989.1573	918.6327	829.6868	739.6234	664.004	596.9064	518.3697	441.3129	366.8325	309.361	264.8368	226.4542	190.2267	156.986	126.7219	104.9762	81.6939	63.6906	50.987	38.1868	29.9364	18.5493	8.8472	0	0	0	0	0	0	0	0	0	0
456	1597.863	1515.4605	1419.8044	1345.3839	1293.3299	1205.1917	1139.8261	1052.144	970.1979	934.0629	925.3169	942.9819	969.4698	995.8679	1039.3255	1077.1281	1101.9214	1111.2211	1105.2439	1074.5629	1013.7167	931.7777	837.832	752.6743	674.9456	605.239	524.863	452.3294	378.0788	317.1464	276.3758	237.1494	200.6652	161.771	137.0061	109.542	89.8792	70.3456	55.1212	42.384	29.8527	22.6932	13.4011	3.322	0	0	0	0	0	0	0	0	0
458	1603.4123	1519.7979	1407.8074	1357.916	1310.8384	1214.6642	1127.1268	1042.2556	985.2198	950.1437	937.4182	949.9228	975.6413	1011.4073	1049.645	1091.238	1112.5446	1127.4926	1113.4699	1075.1272	1011.7735	935.6666	849.366	762.4922	684.8507	609.8038	531.2369	461.8625	389.1282	325.5248	286.247	244.736	206.0495	168.4762	144.3621	117.7095	94.8318	76.3113	60.7063	46.7127	35.5346	26.9551	16.7916	6.7185	0	0	0	0	0	0	0	0	0
460	1679.1962	1511.8235	1419.5695	1346.0365	1327.5858	1233.9732	1149.1633	1068.3236	1000.3423	948.1807	950.4248	944.3071	967.3963	1002.952	1043.263	1085.5298	1115.1902	1121.844	1106.8132	1077.6016	1024.8884	940.1416	852.6065	762.3887	694.9489	617.1491	541.4098	472.0883	395.3208	336.5538	290.715	248.7372	209.3577	175.2917	152.6682	127.084	104.5061	81.6534	64.4344	52.1249	38.7149	29.5685	20.2541	10.1897	0	0	0	0	0	0	0	0	0
462	1605.7474	1559.9765	1438.38	1368.1859	1303.712	1244.5383	1131.2266	1065.0826	1000.9848	948.8368	924.5291	938.0817	978.1186	1003.2317	1051.4585	1085.9448	1117.0959	1117.9473	1120.3913	1071.6208	1021.149	944.9263	855.5031	771.0669	701.9535	629.6576	547.6503	475.3812	407.1793	343.5028	295.5375	253.0464	212.3613	182.4173	157.3357	130.5415	108.2662	89.3131	69.2124	57.8291	44.1195	34.0007	23.8147	14.1722	4.5445	0	0	0	0	0	0	0	0
464	1633.2615	1499.3331	1441.0789	1375.3522	1316.6852	1242.0004	1161.9124	1057.8519	1009.3421	956.9429	937.5075	949.9765	976.8758	1002.8825	1048.6112	1077.2934	1102.7517	1124.5354	1122.3051	1087.6681	1025.6957	947.4613	868.6126	776.264	702.2425	633.8833	557.0502	481.4685	411.8721	359.4298	300.3923	256.826	215.3767	189.6645	162.6579	139.0511	113.0557	93.4413	76.4855	63.4954	49.8643	38.5462	29.1326	18.6739	9.1977	0	0	0	0	0	0	0	0
466	1609.362	1511.5008	1435.6725	1377.6381	1317.8764	1228.3786	1163.9845	1067.3453	1016.2023	966.9881	929.1441	951.3239	969.455	985.35	1045.2666	1082.5717	1105.5871	1133.7965	1115.9375	1093.1225	1033.4513	951.6859	866.3874	778.5413	709.7083	634.27	559.9445	491.0126	418.9945	362.7272	305.3734	260.4201	223.1023	195.4667	168.114	146.1884	121.4665	102.4965	83.9259	66.4115	53.4778	44.219	32.456	23.2854	13.9643	4.0236	0	0	0	0	0	0	0
468	1584.9417	1559.3563	1438.0247	1343.7732	1318.2307	1244.3291	1146.5921	1078.3271	998.1675	945.7175	939.4473	943.2955	973.4767	987.4082	1031.4987	1072.7719	1103.6688	1116.8819	1110.2981	1084.3152	1027.238	954.1819	867.9999	780.3735	707.2621	643.1127	569.4499	492.7668	425.7837	367.2768	316.5184	264.1066	231.0233	198.1205	173.7074	152.0694	123.7658	104.8729	86.4353	70.9188	57.5936	48.2834	37.3555	28.0108	18.8616	8.1462	0	0	0	0	0	0	0
470	1559.4765	1515.0788	1445.071	1354.6043	1314.2052	1246.8298	1159.4637	1082.2436	1019.4766	949.2136	939.2184	951.2689	956.3823	982.4177	1021.641	1058.109	1099.1085	1102.0806	1101.0981	1073.2703	1017.3163	943.2059	868.2174	781.0344	708.75	637.828	563.4895	494.5619	431.309	378.105	322.6433	267.8057	235.7465	200.7809	179.3877	156.0164	130.7489	110.558	93.9745	75.2673	61.0374	50.7981	42.1793	32.261	23.8741	12.3677	0	0	0	0	0	0	0
472	1536.7622	1476.2046	1392.5946	1352.8991	1332.3743	1236.6903	1146.6633	1053.9431	1010.8736	951.691	936.9925	936.9102	953.9785	971.8717	1011.2644	1044.6089	1083.0691	1090.9104	1097.9586	1067.1304	1021.0227	938.5294	863.0892	775.0805	703.4856	639.4735	571.5662	500.5457	430.5809	372.4493	325.7789	272.1646	239.4026	207.2719	185.0934	160.3944	136.871	114.1717	97.7477	79.9053	63.231	56.9455	45.2499	35.9541	29.0705	16.7106	4.9334	0	0	0	0	0	0
474	1512.7843	1442.0973	1413.8178	1345.06	1291.6944	1222.9837	1158.563	1046.1582	1005.8384	939.1446	923.2603	928.1274	937.6546	963.3408	1003.2865	1028.2354	1064.9758	1086.2661	1072.4578	1055.8199	994.535	935.5145	851.1388	776.0768	697.1875	640.8585	570.2772	503.907	432.0152	380.9152	334.4054	284.5103	243.0668	213.8669	189.8713	164.8337	144.5332	119.61	102.6606	84.5902	69.4058	60.2747	49.2806	39.4378	31.4895	21.1543	10.0072	0	0	0	0	0	0
476	1486.1358	1425.0628	1359.655	1331.4446	1281.1409	1229.8637	1130.5561	1063.2611	990.8952	948.1292	908.9232	914.9639	933.9385	949.1154	981.6842	1033.6924	1056.5555	1061.1135	1045.0974	1036.1258	1000.3173	920.5671	848.738	764.0976	695.9418	637.271	563.3572	501.7205	436.3058	383.2409	337.5253	285.5397	246.5133	219.3401	194.5325	169.1795	143.0853	127.4504	105.1321	89.1381	72.0863	62.7913	52.6649	42.3695	35.6789	25.6925	15.2075	4.0219	0	0	0	0	0
478	1456.9576	1405.796	1365.4565	1302.8334	1293.7775	1207.8007	1128.0704	1051.842	992.9551	925.7212	905.65	901.1551	910.8556	931.285	967.2254	1008.261	1030.3675	1039.3886	1046.5133	1020.6784	971.2047	904.9094	838.2164	762.0144	692.4661	633.2937	566.7477	497.7709	434.2653	383.8332	336.923	291.1113	249.7411	223.6981	198.1365	172.0161	146.5205	128.7911	110.3103	92.4274	76.9694	64.5491	56.8495	46.662	36.7871	30.3138	19.711	8.1405	0	0	0	0	0
480	1426.7122	1385.6843	1323.2351	1307.569	1277.5354	1204.954	1123.4105	1046.6986	976.7616	919.004	900.6214	903.1012	907.1398	921.2443	959.3513	994.4343	1013.6591	1037.7705	1019.534	1010.454	968.9547	909.0827	831.7997	756.8622	690.1133	635.4404	563.7338	499.7817	438.2515	390.417	342.6981	295.2993	258.6184	226.689	200.8258	173.9642	149.9969	132.6203	116.3571	96.6039	82.1014	68.7131	60.7002	52.3625	42.2469	32.3069	24.3172	12.3556	0	0	0	0	0
482	1392.4151	1361.8077	1306	1286.2268	1234.3082	1178.9068	1116.2634	1046.7753	971.75	923.9713	884.0404	896.5503	901.1794	908.4426	945.9072	982.6265	989.0896	1013.0456	1009.013	991.9823	958.2594	890.6277	816.4322	753.1431	685.0948	628.2958	563.9347	500.4675	434.5669	390.1137	345.079	298.7365	263.588	229.2126	203.1018	174.6734	153.1966	134.3605	117.7698	99.3136	86.1705	72.0611	62.387	54.4593	44.4941	35.674	28.9663	16.5304	4.715	0	0	0	0
484	1357.2731	1337.2549	1336.8958	1298.4558	1250.2418	1166.2947	1113.6063	1041.6946	956.7203	913.6409	884.2329	878.5315	889.6458	898.4527	914.7816	955.3632	978.8381	995.4443	996.9899	967.0101	936.7443	874.1811	800.7597	733.6097	677.7485	616.1839	560.9081	496.1968	435.5586	388.3937	342.345	300.594	263.4665	231.7431	204.5079	175.3645	156.4301	136.7251	121.2924	105.2244	88.5795	74.6108	63.7494	56.9527	47.2243	38.5932	31.8558	20.6792	9.5203	0	0	0	0
486	1321.0238	1311.7645	1311.3028	1236.7037	1239.3833	1178.3924	1101.2568	1033.7133	950.8799	900.9903	871.596	875.0231	883.8917	878.194	898.5066	941.6853	955.5333	977.0147	976.699	948.6687	916.3703	861.7276	795.8495	727.8553	666.0349	618.5202	556.7097	493.0582	432.0337	389.2251	347.1183	305.6472	269.6471	234.2343	205.4212	178.7699	158.9285	139.0833	122.6915	107.2002	91.9554	79.0496	66.8263	59.6164	52.1558	41.2876	32.845	24.8987	14.4131	3.9057	0	0	0
488	1283.7028	1285.3628	1284.796	1227.412	1213.7103	1150.9952	1090.0074	1010.9591	954.9746	904.91	872.1006	856.4788	856.3707	861.9008	893.5354	919.2381	943.0824	957.318	956.9191	940.6223	900.9132	851.7008	785.9834	719.6732	669.2581	610.0316	550.8311	493.0447	437.2606	389.7176	348.9374	302.126	273.9938	241.4307	206.2767	182.1729	159.9264	141.4345	124.5059	112.099	95.2387	83.8147	67.9123	62.4289	53.3441	44.2197	36.1943	29.1868	18.8656	7.8817	0	0	0
490	1245.5928	1258.3247	1257.6517	1252.2419	1221.0462	1150.742	1083.7731	1011.0855	941.7197	890.2708	859.3976	835.6284	832.6422	859.1922	870.6547	899.9391	917.5311	932.2059	933.2748	915.281	881.5153	838.3976	764.8809	713.1356	657.3644	606.5748	543.044	491.1066	431.9972	389.3485	350.9603	302.5398	272.5933	240.6219	207.1151	184.1108	160.9168	143.8055	126.1166	112.1652	99.4289	85.2861	72.9949	65.1611	57.581	47.6471	37.9376	33.2417	23.3953	11.9278	0	0	0
492	1207.8812	1230.052	1231.0787	1228.3644	1185.4287	1139.9807	1068.858	996.592	945.4617	873.7731	844.7072	840.6419	839.9986	838.5988	867.439	877.6641	902.537	923.0982	913.41	896.3755	872.8143	819.3141	764.8956	703.7871	653.5346	598.0843	541.0703	482.5931	432.9064	391.418	344.3098	302.2826	276.0688	245.1137	208.1345	185.4757	163.6087	146.335	127.9223	116.2331	99.8464	88.5842	74.8055	66.3542	57.8856	50.0732	40.7015	32.2075	28.0288	16.0757	4.6999	0	0
494	1169.291	1199.2249	1203.7963	1205.5083	1178.6249	1096.1405	1066.1105	982.3162	924.565	866.0404	828.8897	827.8389	820.3516	814.7021	832.9384	852.4902	873.2367	900.9892	895.4558	873.1331	849.614	805.0269	748.9294	688.6082	645.1088	591.7544	539.4104	480.6225	430.2981	387.279	347.2091	305.1543	277.978	245.0313	214.7018	186.8325	166.3226	147.487	129.7392	118.668	102.4653	89.6216	78.7119	66.2586	60.1152	51.7724	43.9064	35.1431	29.7756	20.3183	9.4911	0	0
496	1129.4765	1167.2735	1157.7857	1170.0746	1141.0187	1115.6265	1038.6923	971.9293	912.4402	867.5646	821.5525	813.8944	796.0021	805.2911	823.174	837.4904	860.0986	875.0346	868.0104	862.4635	831.1314	785.9389	733.7459	672.8399	633.2914	583.9798	526.9152	484.8445	424.1717	386.1045	347.9201	304.7593	276.6225	245.3889	219.7583	188.124	168.3039	147.8832	131.5276	115.7878	106.5586	91.9101	82.9181	70.2772	59.1562	53.5383	45.2329	38.3349	28.5174	24.632	14.3694	3.7156	0
498	1088.4918	1093.9297	1117.0246	1133.5116	1152.5811	1081.3956	1031.9187	951.3515	895.3632	849.7712	816.2221	797.5271	794.8325	794.0077	808.0582	818.4983	833.1814	838.5636	844.7582	826.6564	806.634	771.6517	707.05	663.0387	624.1562	583.2457	528.2696	474.5395	425.0168	380.4432	345.2637	307.6344	273.7021	247.199	217.2263	189.3507	168.823	148.2174	133.2869	116.6669	106.3907	95.1723	84.62	72.6327	61.3795	56.8001	48.8561	41.1844	29.5663	29.0133	18.4086	7.4973	0
500	985.7837	1047.6127	1075.465	1096.2024	1125.4352	1061.0076	1010.9981	939.5857	885.5503	829.835	790.3883	783.4982	778.3659	770.3553	774.1188	792.3849	809.113	827.9916	825.9081	818.6344	779.6299	742.8806	693.0266	651.8593	609.3601	567.0597	516.6465	462.2092	416.1336	377.79	339.0237	305.5075	275.3966	249.0314	221.7839	190.7125	169.3252	150.1182	134.2908	117.5435	109.3875	96.2235	84.5841	75.9054	63.6083	55.2098	48.4371	40.5717	31.7659	31.0847	22.517	11.3453	0
502	1031.1751	1000.1431	1032.8464	1057.8271	1076.5914	1052.1144	980.1569	923.6232	881.0296	813.0324	783.6541	765.4805	757.1359	751.1378	759.1622	777.2557	784.5586	795.5532	799.2623	785.686	761.4337	727.6006	682.7759	635.5944	597.7665	558.0741	511.7929	464.4759	414.4009	370.444	335.5649	297.1532	268.8725	245.9696	219.0558	195.386	169.76	151.9838	133.7063	118.3826	105.9365	100.4949	85.6192	77.6035	65.1286	57.7847	50.5454	44.3139	36.5195	30.0096	26.6868	15.1778	4.2157
504	1051.9681	951.8676	989.5227	1018.7449	1037.606	1022.4972	978.2486	897.8556	850.992	799.1353	763.9469	742.5186	737.7208	724.9659	742.4351	751.233	764.1077	779.8138	774.1474	768.102	737.1542	707.6603	663.1696	616.9334	583.7406	545.6612	501.1634	452.8193	402.2601	366.822	333.9135	296.2149	268.6922	243.3578	217.8296	196.8768	170.1784	152.3029	133.0936	119.2192	105.3256	98.6033	89.3706	79.716	69.1988	56.5349	53.0208	46.7542	36.7527	31.1746	24.3128	18.9951	8.5023
506	970.3269	903.8777	946.5864	990.278	1009.5526	1018.0447	969.2906	872.1876	835.9291	789.1368	744.5779	733.503	716.2363	707.5735	720.6276	730.3598	743.5025	746.6376	757.5023	743.8956	722.2812	687.5495	643.1863	603.2092	568.9069	535.5179	491.9381	442.7854	399.4703	364.2642	332.5574	294.1248	271.8743	241.0074	213.2364	194.6289	170.7813	152.0006	134.199	120.1943	106.0239	101.8035	90.1249	82.1407	70.585	59.5299	53.1561	46.8171	39.487	32.1292	27.7589	22.9006	12.8748
508	846.8579	855.971	930.3134	956.5347	982.0042	995.5251	932.039	865.6153	817.5476	760.4268	735.9272	708.0934	702.303	693.596	693.6795	708.1408	710.7721	730.7278	716.3248	721.0942	692.5246	664.0377	626.753	587.0411	554.0491	523.0252	481.3608	438.5888	393.8107	355.637	326.7631	289.4344	266.3314	241.0491	215.8139	193.8916	171.1982	151.8428	135.4593	120.053	106.8408	98.699	89.4788	82.5946	73.0125	61.2251	52.2717	48.7857	40.8468	34.7109	27.957	26.9077	17.3484
510	832.2848	852.9564	891.6862	921.9365	953.7031	978.2721	895.7368	853.4525	799.8907	758.507	729.301	706.5684	681.5493	667.2657	680.301	687.0971	688.4484	706.1179	694.8999	686.834	672.6205	648.8483	610.3847	571.0835	541.7224	511.592	470.4591	432.7414	387.0979	350.7477	322.3287	286.892	261.7109	238.6028	215.2073	191.523	170.8155	151.6485	136.0784	119.2487	107.6515	98.5569	92.5559	81.4032	74.2071	62.8087	52.3746	49.4587	41.8156	35.8377	30.3635	25.1937	21.9131
512	817.1343	864.8653	852.0409	887.8552	924.5333	949.2037	879.942	825.1872	771.0589	729.9171	703.3138	680.5823	672.2094	653.7408	647.1296	663.0813	676.5219	676.6747	678.2177	669.7372	653.1669	626.6505	590.0732	557.6389	525.7659	502.113	457.8202	418.8463	378.4189	344.387	315.1068	278.0799	259.0215	234.0656	210.7971	191.8088	168.8518	151.398	135.3743	118.3878	108.4423	98.291	92.7931	83.9779	74.9869	65.5401	52.2847	44.3619	43.6514	37.8865	29.8562	26.6263	26.5656
514	801.5198	839.8208	811.5045	854.4576	894.6282	886.9969	887.7991	820.1426	757.6891	724.5559	690.2999	665.4521	650.943	634.4008	633.0676	632.4247	645.27	654.9229	657.2344	651.8118	628.3427	605.8226	574.611	534.7627	516.1744	487.7738	455.9568	406.2634	368.1206	339.4036	307.3623	277.0255	253.4343	231.7606	210.8632	189.8706	167.1844	151.0202	134.6284	119.2705	108.3072	97.9997	91.1398	84.3506	74.266	68.0459	54.6816	44.5099	43.7403	37.7825	31.7008	27.3254	27.2631
516	786.0563	820.8683	770.6846	820.9212	850.904	855.9158	855.7137	801.3214	749.0805	701.9269	672.6398	655.6459	626.1322	616.2959	616.9595	623.4701	627.4501	634.9329	629.2804	623.9124	608.2352	588.4403	561.1871	521.8434	499.9737	473.6367	439.9389	401.5137	361.9047	336.2895	305.1033	268.5228	253.1826	224.5462	205.3194	190.5414	169.9473	152.7431	133.9431	120.2392	106.3714	97.7577	91.9827	83.4382	76.2027	66.5542	56.785	44.7866	42.5674	39.5887	33.5508	28.6412	28.576
518	770.6878	726.0986	729.4697	799.3898	820.6459	824.664	831.4498	779.2469	738.5133	688.6123	643.3468	627.2021	621.4084	600.3205	593.742	603.8254	596.1879	612.7844	615.1314	609.5824	591.6196	568.3185	537.8477	505.4709	489.1948	457.6553	429.9789	388.1819	351.5676	327.6644	297.6037	268.8238	248.1488	226.0336	207.4112	182.6998	164.7594	149.1415	133.3138	119.3963	104.4493	97.5622	91.4076	84.6351	76.7867	68.4008	59.0544	42.8768	38.4868	38.9884	34.2737	30.2841	30.2151
520	754.783	619.2251	733.6762	764.8018	789.539	792.5432	790.8971	743.0813	704.1775	668.7241	642.5849	616.1687	604.647	575.4985	582.1527	582.1973	583.1429	593.4451	589.1641	590.504	574.4212	552.833	522.997	499.151	479.4539	452.1182	415.847	382.1075	346.0057	318.7582	289.6448	260.6184	240.7019	219.0695	202.4549	181.8561	164.6529	148.129	132.636	117.5447	104.2991	97.3373	90.1727	83.8499	76.7142	69.1951	60.2412	44.3725	36.7973	39.0588	34.6836	29.9239	29.8559
522	738.2955	611.9443	718.3082	729.2623	755.2731	759.5069	776.0292	739.4517	692.5321	649.1136	627.4973	603.9127	585.5085	564.7285	567.7477	558.8412	567.9401	571.0362	567.4388	569.8593	549.9929	534.0068	509.7523	481.2717	461.5776	440.177	404.9937	371.7925	339.3559	311.6255	286.8745	257.1857	235.3888	217.4336	197.7195	181.8365	164.0129	147.8402	132.0074	115.6149	104.1128	96.1642	88.8819	84.7854	77.0503	68.1911	60.1735	47.7518	33.9925	38.2407	35.8237	30.2793	30.2103
524	721.2777	604.3558	704.0385	692.8307	717.8482	725.6168	748.8131	722.4505	677.1511	640.6294	609.4325	575.5873	566.3532	550.0728	544.6705	543.1968	552.0852	551.2322	553.4052	552.119	538.0355	512.9136	487.1739	472.1188	442.5534	428.1927	397.2969	368.4249	331.0933	305.0866	280.3174	250.8559	233.0149	212.603	192.334	177.9608	161.1864	146.814	129.5962	113.6148	103.4348	94.4808	87.5412	81.36	75.5614	67.3084	61.5436	53.2761	33.6502	33.994	37.2018	31.2704	31.1991
526	704.214	596.8677	709.7946	655.9615	679.9792	703.3715	717.9868	692.2088	662.0566	616.3938	584.771	578.4174	552.8987	532.4146	532.6394	529.8556	525.975	533.5108	538.1929	528.1871	518.0037	494.4027	473.5467	451.1334	439.2659	411.9853	389.7423	356.6748	324.4273	297.9095	274.5614	247.9074	227.2023	207.0564	191.1029	174.3443	157.6988	142.1405	128.8819	111.6195	101.8516	92.801	86.2088	80.3209	76.3266	68.2677	60.8892	53.2436	34.6771	29.4915	35.0778	31.8398	31.7672
528	687.0529	589.4508	679.8558	618.5667	662.981	677.2504	686.7813	686.4485	633.2558	593.6139	585.0008	557.0937	544.4479	527.0093	505.4617	511.5492	510.3776	519.2211	514.0381	509.1463	499.3894	484.844	459.726	436.514	422.699	403.4601	377.1589	349.6272	317.7766	288.1904	269.9984	240.502	226.3089	204.3556	186.3946	171.6339	155.8656	142.1999	127.8846	113.4819	100.2724	91.5644	84.8361	79.2899	72.9483	66.759	60.7343	55.3369	38.5185	26.7138	33.0653	33.2298	33.1541
530	669.296	581.6875	544.4913	607.4498	633.0272	650.343	654.6811	655.5075	615.481	589.9319	561.2476	541.6914	524.207	497.8653	488.6282	498.3669	496.9855	499.8431	499.2093	487.9143	487.1981	465.4431	445.3044	425.4935	410.7086	389.5789	367.7264	342.3212	308.2192	281.5828	263.1009	235.853	217.7659	199.8402	183.3302	169.8586	154.3128	139.4653	126.4234	112.4778	98.6267	90.2718	83.318	78.2114	74.2395	67.2495	61.0036	55.9603	43.3442	27.2593	29.1374	33.1191	33.0437
532	651.0437	573.6649	438.247	605.9047	602.3239	618.8737	621.7856	642.6825	612.6845	572.1778	545.4404	525.9585	510.2252	486.886	486.0838	481.0731	481.1311	474.5389	480.2833	482.298	465.0054	457.7571	434.1109	413.9619	400.7513	378.1625	361.6649	335.2816	300.2733	280.4222	252.9436	232.2194	213.8931	195.2056	179.0151	161.5238	148.811	137.3298	124.819	111.8613	96.9285	88.8477	81.7526	77.097	72.2538	66.5568	61.1112	51.8789	45.3929	27.5622	24.4004	32.1681	32.0949
534	632.1911	565.2923	461.6982	592.8678	570.7727	582.6274	587.9925	614.4557	596.4937	565.1986	532.5053	512.9177	494.0936	470.8123	467.4631	462.547	462.6784	464.4932	461.8627	461.852	455.6349	442.0153	415.8921	400.4748	388.4486	369.0139	343.5995	319.6013	292.8758	271.3648	249.8193	225.7123	211.3123	190.6039	177.6456	158.103	148.8671	134.5236	125.1406	109.1187	95.1629	87.32	80.6663	75.9344	71.2491	64.4701	60.911	54.2289	47.7665	35.2318	20.2602	29.9149	29.8469
536	613.0585	556.8591	485.8555	577.8548	538.6575	545.7258	579.0775	588.6144	584.7075	538.6974	514.0047	495.7642	487.1881	462.7391	454.2232	448.6468	449.1498	447.2788	447.7211	448.1065	433.1155	427.4925	410.056	388.5553	376.7207	359.7821	343.2617	313.0748	286.4185	263.7684	239.0617	219.0495	203.8297	189.7409	171.9624	155.2306	144.1253	132.7661	120.4015	106.1218	98.22	85.7765	79.5734	74.8062	70.2375	66.0428	59.7181	56.0852	47.1348	38.3483	18.8093	25.0467	24.9897
538	593.6057	510.2834	510.7501	568.6598	505.9213	557.8669	554.1373	562.298	562.2704	529.2022	494.9911	486.13	465.1203	455.3227	439.3837	436.5799	442.9651	441.8273	430.7096	433.2774	427.1411	410.0809	399.2604	380.4035	364.4965	353.8866	330.5273	307.3335	277.3858	259.2838	236.8794	214.1618	198.0938	188.2559	167.644	154.9186	142.6004	130.334	119.1485	106.9843	97.3165	84.2132	78.4925	73.6884	69.2159	64.6809	59.0213	55.1405	47.1348	39.753	20.2857	19.1452	19.1017
540	573.5019	537.3714	536.1422	533.5734	542.6044	530.2868	528.4354	535.1871	546.7395	504.8841	489.2838	474.2392	438.3503	431.6778	421.0208	417.9974	424.1489	425.6877	419.6964	417.9772	413.2738	406.0397	381.2253	369.1934	352.9748	339.2938	320.1179	299.3637	269.5007	248.104	234.369	212.8673	196.4121	179.5822	164.0615	152.0543	138.1049	127.9458	116.4671	107.9835	92.0928	82.585	77.405	72.52	68.1474	63.2986	58.759	54.2045	47.1199	43.1439	24.6759	13.2565	13.2264
542	554.056	522.0455	482.1491	447.1044	538.3948	503.0906	501.9518	508.4831	534.7855	503.8225	468.6024	462.0751	441.0846	425.025	413.5655	410.9251	400.055	404.7977	413.2936	407.3914	398.7999	390.1871	369.163	360.7005	344.9403	333.0393	311.115	288.349	263.8112	244.5006	227.0981	203.7833	191.361	175.9582	162.8089	148.5892	134.6397	123.5717	114.2775	103.6374	94.3941	85.0844	76.4452	71.6427	67.013	62.0075	56.8919	53.3131	45.9721	41.9835	33.0725	10.1066	10.0836
544	633.082	499.1487	373.0285	265.9826	518.231	474.9324	473.3008	480.8276	517.5461	491.9593	463.0748	449.082	426.1481	409.5538	402.0151	398.5546	395.526	397.768	395.3449	392.0282	387.5045	380.0622	361.5032	348.1333	334.2895	321.5327	306.966	286.8475	259.9242	239.4262	221.6762	203.5814	181.3804	169.7029	158.4308	145.4436	130.9183	120.1111	110.9558	100.4341	91.126	85.1194	75.4255	70.71	65.462	60.653	55.1082	51.7499	49.0461	43.1331	35.3418	16.3813	16.344
546	659.3354	511.8186	373.8971	313.2999	503.5066	445.57	443.4344	477.523	493.7971	475.6368	454.2503	443.6487	411.9071	396.9388	389.6095	388.0981	380.3059	389.8486	386.8499	382.4086	376.0956	363.4334	351.5353	341.7309	329.9053	311.6951	297.3227	273.93	255.9145	234.5922	218.2159	197.0994	183.6637	169.5733	155.5299	143.489	130.3911	120.1989	109.1171	100.4751	90.9989	81.9856	74.3054	69.3267	63.8051	59.2027	54.9833	51.9141	46.9425	43.1929	37.9599	20.0932	20.0474
548	676.2829	503.1701	364.7966	361.7167	493.5072	415.0679	454.5281	455.7826	468.9959	459.5527	430.9903	425.8243	403.1663	385.6238	377.974	376.8893	373.7896	364.0585	371.9879	365.0417	364.6234	350.4603	341.075	327.949	312.8925	306.7233	286.5703	266.5873	245.0924	224.9284	210.1784	190.4489	177.1972	164.692	153.2132	138.5449	128.5228	117.1601	107.7768	97.433	89.409	79.9481	73.0883	67.6631	62.3382	57.6603	53.4075	51.7288	47.1141	43.8526	37.3035	26.8237	26.7626
550	592.2209	494.137	386.8282	411.3912	465.9598	442.8293	431.3535	433.3593	443.4369	449.0291	420.1853	414.6837	391.8272	368.0995	364.4063	367.7294	355.5454	357.3972	358.6751	360.5778	348.2971	342.0069	326.5024	316.0244	302.82	297.8198	277.1928	260.4574	240.4183	220.339	203.6562	185.9449	170.3125	161.8551	146.7306	133.7781	126.0983	114.9796	105.0963	95.4657	88.4405	81.0353	72.8407	65.9347	60.8134	56.178	51.7738	50.5891	45.5571	41.2342	38.4933	30.8941	30.8238
552	590.9537	486.0983	442.5459	463.648	480.5503	414.6467	408.6391	409.9559	418.3083	431.7657	410.9199	402.3848	383.7424	363.4124	356.5999	343.5935	344.5514	346.0372	347.5934	342.3584	335.5661	328.9749	316.3361	304.65	299.8641	286.9018	274.6633	250.8471	234.449	215.2248	198.5735	180.1485	168.2377	156.1594	145.7818	132.6904	121.3653	111.8657	100.7528	92.739	83.4657	78.3132	71.1479	64.3219	59.4567	54.8541	50.2232	44.8408	45.7044	40.9756	36.9575	31.9531	31.8804
554	568.4845	477.5867	429.8757	388.4025	352.207	422.0165	385.0632	384.1872	392.2459	422.0797	408.4311	377.3285	371.2291	350.0677	340.4856	338.6406	335.2739	338.4778	336.3029	329.0798	327.0198	316.5823	309.8041	297.0357	284.7183	278.3533	266.4168	245.8735	225.186	210.9196	190.8689	175.8748	166.0422	151.6414	139.3694	130.0754	117.6319	113.2732	100.2417	95.1087	83.1721	76.9488	70.5741	62.6297	58.152	53.4639	48.6016	43.6507	44.6189	43.0086	38.6568	33.8139	33.7369
556	570.4492	488.5679	351.0207	234.5006	135.2096	424.9291	360.762	357.6324	393.0661	405.644	388.1489	377.0486	355.3732	344.5836	336.916	330.78	325.8914	324.8283	327.8554	325.4066	317.8606	309.6967	295.6711	288.4016	278.3539	272.0879	261.7423	238.1295	220.9162	203.9693	192.018	173.2613	160.8563	148.2833	137.5558	128.3793	114.0951	105.3077	98.7257	90.142	84.3337	76.559	67.2071	62.1968	56.8024	51.8998	47.0351	42.4205	41.5635	41.7143	37.4973	33.3823	33.3063
558	538.831	541.0384	382.7085	248.7818	190.5571	431.682	335.7054	368.853	379.7368	388.6735	372.8958	371.4021	349.8722	327.5365	318.1662	313.8676	315.6716	314.6398	311.5554	311.1843	306.7347	294.8955	283.5374	276.1326	267.2527	262.874	249.8924	230.1401	213.5216	199.9798	181.71	169.4642	156.8738	141.847	131.527	121.4285	112.2724	103.4539	96.6254	87.3851	81.0751	75.9579	68.4873	61.9143	55.4056	50.2821	45.6366	41.148	38.7045	41.2747	36.0686	32.9381	32.8631
560	541.6898	549.3192	385.5689	249.8289	247.6948	418.7407	358.0724	355.0342	365.8266	371.012	362.7756	348.1182	338.2642	313.6959	311.7064	307.1014	301.5981	301.9635	297.4241	298.8471	295.816	289.8397	279.1312	276.0269	261.6435	255.2461	234.7691	224.3342	208.773	192.0323	180.4361	161.7995	151.9764	139.446	130.188	119.115	112.3787	102.4987	93.547	86.2111	79.8763	73.8844	68.4673	62.2006	53.9398	48.8122	44.1737	39.817	35.1181	40.1464	36.7032	34.2221	34.1441
562	567.2453	529.9376	388.3214	282.0061	306.6251	430.0351	368.621	340.6276	349.6389	352.6453	362.7511	341.1841	324.1946	298.88	295.7698	300.7187	290.3815	298.1334	286.8728	283.3399	282.6462	277.716	261.3402	257.5488	251.8104	244.0787	226.2233	217.5055	198.4557	184.1167	176.71	157.4953	148.8537	134.6115	126.1084	115.8257	106.0917	97.6225	90.7866	83.0092	74.3823	71.4304	66.2362	61.0968	52.4025	47.3855	42.8575	38.4258	35.128	36.6113	35.4705	33.703	33.6262
564	566.2709	492.9309	390.9844	346.8703	367.3742	382.2815	377.4662	325.6523	331.1235	333.5939	360.2138	330.3174	315.1751	295.4209	291.5727	280.8614	285.5734	277.689	277.5948	274.239	272.6702	269.3434	256.1074	247.724	239.7049	236.5276	222.2029	212.9906	193.4609	180.8437	166.5124	148.7366	143.5229	133.8994	123.0184	113.7726	102.0049	95.3723	88.0901	79.4852	74.0397	68.3281	62.4563	59.7947	53.8384	45.8955	41.4834	37.8062	35.1228	35.8726	35.4019	33.4814	33.4051
566	544.858	517.7916	393.7993	364.3987	338.5152	314.0149	376.0222	310.3002	312.1325	341.2111	346.7469	327.5469	300.793	292.6575	276.4133	277.7373	263.8601	269.5861	265.7784	263.9648	261.4894	261.4147	252.7427	240.694	234.8836	227.211	215.6024	203.1707	187.5802	170.9885	160.7074	147.9008	137.4937	126.5212	117.7429	104.9705	100.8703	92.8378	86.5544	80.4061	73.6929	67.7096	60.9127	58.5925	52.9626	44.3693	40.4947	37.5961	35.1238	33.1207	33.4311	33.6886	33.6118
568	546.8533	561.1819	473.0801	352.4705	249.4599	160.1329	380.8888	294.535	329.6376	331.7457	332.9277	314.0351	294.5896	269.8085	270.9265	267.2015	260.9567	256.2677	255.5574	255.0064	250.3347	248.5908	242.0544	231.9182	230.8953	217.9069	205.8573	193.0671	180.5827	169.6404	153.979	142.3097	137.1448	125.0147	113.9022	105.8464	95.9511	90.2845	85.1085	76.7882	69.5357	65.749	63.3099	56.0182	51.4615	42.8028	40.3326	37.385	35.1301	32.1352	34.8229	30.2342	30.1653
570	557.7947	545.8113	516.0626	423.2752	343.5571	252.6108	381.4285	321.8548	320.0525	321.8343	318.5328	308.6151	289.8028	269.2424	255.5924	258.5004	250.5292	255.3763	246.248	239.3187	240.672	235.191	229.1215	221.931	213.7057	211.8441	205.1649	188.7458	171.1836	161.4786	151.0975	137.3362	129.7621	122.4964	112.4399	101.8012	91.1252	87.548	78.9929	74.8004	67.2085	64.0704	59.9066	54.3686	51.11	44.7746	40.1465	37.4075	34.9103	31.1041	32.3524	31.0467	30.976
572	602.9037	616.7552	584.4761	564.429	472.6953	349.0252	395.3353	334.9653	310.6987	310.2843	304.2155	297.4652	272.1679	257.6596	254.1244	240.2057	247.4398	246.1435	239.7973	242.5946	233.7059	231.9526	223.6886	212.5801	209.284	207.5735	201.3575	183.1616	168.1238	157.2768	143.9149	130.3055	123.4028	117.5679	109.0975	99.2509	93.2073	84.6285	78.1713	70.7314	66.7685	62.9061	57.8457	53.4516	50.7508	44.6871	40.0215	37.4934	34.3152	30.0915	29.4955	31.6107	31.5387
574	790.7335	752.4263	698.3266	711.2553	595.169	449.0793	420.0983	355.8014	300.8466	296.2706	289.24	290.0338	268.0734	255.7468	241.3348	241.9518	234.2107	231.4288	224.8184	229.8067	224.0217	226.6484	215.1675	208.0103	203.2117	200.8296	187.0744	177.6067	165.337	154.2533	143.8908	127.6281	124.7164	110.6133	105.1427	98.2075	89.498	83.3727	78.2341	69.842	64.9405	60.3038	57.0871	54.8371	47.4515	42.7367	39.8689	37.1252	33.6797	29.0267	24.2648	30.476	30.4066
576	1124.446	1133.7224	968.0761	863.8802	710.2411	552.8245	425.8215	370.8738	290.4928	281.6227	305.7825	282.9421	252.0337	247.5148	234.1447	229.5362	226.5543	223.4619	222.0003	225.7582	220.8612	209.6459	203.2098	200.6688	197.8892	193.8151	186.1835	171.6545	158.663	146.6573	137.1744	123.4293	119.4635	109.9055	100.6389	94.6745	84.7771	81.3518	74.8361	67.2182	63.3242	57.9271	56.3664	52.4046	47.6165	44.1672	39.6882	36.502	32.6439	27.9092	24.5004	29.1245	29.0582
578	1586.2761	1541.8841	1289.7858	1022.4463	775.1885	561.0513	385.6161	400.7075	279.6386	320.8387	290.5539	275.4596	252.5849	244.0888	232.9297	226.6735	220.1547	215.2498	214.9193	214.2385	211.1299	206.3345	199.2856	193.0697	191.3162	186.4364	176.7857	169.4257	152.2261	142.3228	134.3806	121.1222	113.9097	103.3188	97.1658	89.4928	85.3589	79.0016	72.0872	69.2515	62.3913	57.7966	52.6887	51.7028	45.7594	44.3534	39.1929	35.8377	31.5557	27.4167	24.7302	27.0843	27.0226
580	1912.7315	1951.7724	1642.3112	1290.9535	903.9298	573.3307	299.2478	436.9466	341.5072	306.3165	274.6886	267.591	247.1923	225.0358	223.1025	221.5754	209.1952	207.7676	214.3079	206.738	208.2212	199.0813	189.0914	189.0062	182.5653	178.2702	173.676	159.783	148.0059	136.6978	131.0903	116.7032	111.2919	100.9692	95.3331	90.1812	80.111	76.2822	73.2768	64.7842	61.7722	55.0322	50.5886	48.1548	46.0116	40.84	39.0254	35.133	30.7588	27.2381	24.9545	26.7903	26.7292
582	2318.5043	2211.2668	1883.1131	1438.3067	980.3284	591.183	356.8226	447.7909	357.9977	291.2695	262.7206	259.4125	250.2527	222.2448	211.4184	209.4371	210.4296	204.8816	202.3854	205.83	203.2997	193.6379	185.5278	183.6516	180.8169	176.0785	165.3709	156.9292	143.764	134.4674	125.5651	113.4182	107.5406	100.6647	94.4357	84.4604	76.6782	73.9833	67.8241	62.7724	60.9431	54.6226	52.0846	49.2466	45.8801	41.3289	39.533	34.3979	30.6269	27.0477	25.1808	23.3391	23.2859
584	2341.6128	2317.8041	1984.6343	1484.2764	952.8014	561.4016	416.2548	463.4704	371.9167	275.6017	254.7656	250.8414	250.592	207.4193	214.2483	202.055	203.0091	196.9064	200.2828	190.7822	195.7306	188.9868	179.3777	177.2052	173.9903	167.5004	162.4325	150.676	137.4143	128.565	122.9907	109.2147	104.0571	96.97	90.8648	80.5081	76.0969	72.4418	66.6526	62.5344	58.0421	54.3335	47.7199	46.6111	43.7749	41.4227	38.0735	34.1552	30.4753	27.2979	25.4015	20.3658	18.5693
586	2287.6631	2204.9051	1911.2241	1451.3661	923.8125	579.4283	477.4851	472.3439	371.5221	259.2727	246.3958	258.8859	240.6765	208.7639	203.5449	195.2151	197.6236	193.7258	187.3815	183.7834	182.5875	177.4406	177.2421	166.2296	167.1043	162.3195	154.6174	142.8092	133.7929	126.1625	117.4199	107.8597	100.3203	92.7222	86.7091	81.634	76.2211	68.4456	65.6703	60.463	54.9064	53.8561	47.7383	44.7095	42.5436	38.5687	36.4206	35.1659	30.2989	27.5381	25.255	17.2859	12.858
588	2077.2938	2066.6116	1799.9431	1428.4667	893.3897	647.6486	540.5049	458.152	383.9161	242.294	261.6757	244.0805	230.3103	204.3148	195.6018	189.2115	186.9519	185.1281	185.2119	181.3526	179.9713	176.8002	170.7135	166.0857	160.8791	155.9693	152.1239	146.9527	131.9412	120.2871	113.0536	102.7292	94.6572	89.3487	85.4084	80.2266	70.9564	68.3607	65.9355	60.6863	53.1673	51.5401	46.0984	45.9079	42.9046	37.4245	36.8133	32.2143	30.098	27.5869	24.9067	14.1013	1.9239
590	2063.1854	2055.807	1766.579	1388.4257	861.6994	674.2872	523.6303	401.2318	361.3455	264.4363	247.4183	228.733	219.5355	201.2546	194.5857	181.8332	183.1437	181.2436	179.4833	176.8959	170.2543	167.8454	162.2719	156.0099	159.6345	149.5026	147.0513	138.0438	124.9052	117.5029	106.9153	100.9432	95.4258	86.8121	83.9417	74.1657	70.0846	65.7055	61.4144	57.8695	52.7785	49.0437	47.9832	43.1761	41.5267	38.0224	35.6439	32.6066	29.8778	27.2564	23.159	10.8152	0
592	2157.8129	2065.4023	1823.4984	1419.409	900.1013	663.2037	470.0959	307.7131	365.2888	254.7828	233.4865	216.2274	209.1085	197.3964	188.1464	175.2514	169.353	172.4072	173.6601	167.2283	166.3534	163.5647	155.2532	149.8863	154.0087	149.5127	140.2579	133.4187	123.2528	111.9684	105.9515	96.3237	89.5556	85.1828	80.2459	75.9537	68.8902	64.2774	60.2187	54.8149	52.4338	47.3099	43.9825	43.0909	38.3773	35.1248	34.2179	32.0914	29.7758	27.0015	20.0237	10.4702	0
594	2238.1046	2199.6906	1905.234	1416.1455	991.0764	724.0375	512.62	368.7079	405.7151	252.9838	218.9036	205.7882	198.1695	199.8759	182.6953	171.0803	169.7012	167.6596	164.3105	167.2183	161.5211	157.3031	153.5329	148.8173	145.3282	142.4273	133.8808	129.2282	121.3202	109.983	103.1432	95.7	89.4953	83.551	78.5816	72.6005	65.788	63.3149	58.2081	51.8717	50.1364	47.5074	43.4222	41.4191	38.2065	35.7052	33.3051	32.1426	29.1011	26.7197	18.0189	0	0
596	2315.5703	2469.0085	1989.4807	1586.0747	1021.371	761.9321	571.9702	432.0537	402.2165	277.5945	203.7588	194.9342	202.9594	193.9457	170.882	166.2308	165.7947	166.5688	159.7031	162.4498	160.1114	152.4928	147.2845	146.9968	141.9331	135.2621	133.2407	125.3441	115.3772	107.2478	101.3561	92.3265	89.125	82.0955	74.7903	70.229	64.6203	59.96	54.4036	50.7026	48.3436	43.3162	42.5602	40.4448	37.9834	35.8264	32.7371	30.4533	29.0275	26.4221	19.6268	0	0
598	2683.7611	2650.2007	2088.3146	1668.4825	1075.698	821.2963	642.3513	497.8479	416.2405	284.6887	188.029	201.9438	196.987	187.7583	171.0937	159.9098	158.6604	156.23	158.8427	158.5614	148.0545	149.8348	149.855	137.2581	135.6628	137.1217	126.7909	121.0812	110.8319	103.9113	96.3499	87.6433	84.4775	77.7688	74.4012	69.3639	63.9709	58.8003	55.8567	51.5428	45.6285	43.6443	40.2083	39.3178	36.7748	33.9209	33.5608	30.6632	29.5974	27.059	0	0	0
600	2723.3796	2775.336	2273.8004	1741.3071	1135.679	901.6854	715.1515	565.9529	441.8214	284.4748	196.9595	195.9671	190.6717	181.2264	171.4693	159.0333	154.527	150.7716	149.9516	154.7459	146.7608	144.0672	137.7014	135.224	133.8858	129.7861	126.8307	116.9589	108.4473	99.319	96.1844	85.9591	83.5044	78.1321	70.904	66.5003	60.2214	55.9301	51.8912	49.8506	46.9178	43.6304	40.6542	38.623	37.6054	32.1729	33.8866	29.9994	30.1729	29.4573	0	0	0
