Description	SCS-A (clean blank)																																																				
EEM type	"Dilution- & Scatter-corrected, Calibrated Data (ppb QSE)"																																																				
Scan date	10/12/2010 10:08																																																				
Excitation	240-500nm by 5nm																																																				
Emission	290-600nm by 2nm																																																				
Calibration	Michael_Fluoromax4_April08 (07-Apr-2008)																																																				
Slit settings	"5nm Excitation, 5nm Emission"																																																				
Dilution	20																																																				
Row 1	Excitation(nm)																																																				
Col 1	Emission(nm)																																																				
Data	Fluorescence(ppb QSE)																																																				
																																																					
	240	245	250	255	260	265	270	275	280	285	290	295	300	305	310	315	320	325	330	335	340	345	350	355	360	365	370	375	380	385	390	395	400	405	410	415	420	425	430	435	440	445	450	455	460	465	470	475	480	485	490	495	500
290	0	0	0	0	0	0	0	0	0	0	0	0	0	0	0	0	0	0	0	0	0	0	0	0	0	0	0	0	0	0	0	0	0	0	0	0	0	0	0	0	0	0	0	0	0	0	0	0	0	0	0	0	0
292	0	0	0	0	0	0	0	1.0654	0	0	0	0	0	0	0	0	0	0	0	0	0	0	0	0	0	0	0	0	0	0	0	0	0	0	0	0	0	0	0	0	0	0	0	0	0	0	0	0	0	0	0	0	0
294	0	0	0	0	0	0	0	2.1076	0	0	0	0	0	0	0	0	0	0	0	0	0	0	0	0	0	0	0	0	0	0	0	0	0	0	0	0	0	0	0	0	0	0	0	0	0	0	0	0	0	0	0	0	0
296	0	0	0	0	0	0	3.2037	3.1224	0	0	0	0	0	0	0	0	0	0	0	0	0	0	0	0	0	0	0	0	0	0	0	0	0	0	0	0	0	0	0	0	0	0	0	0	0	0	0	0	0	0	0	0	0
298	0	0	0	0	0	0	6.3197	4.1056	1.7619	0	0	0	0	0	0	0	0	0	0	0	0	0	0	0	0	0	0	0	0	0	0	0	0	0	0	0	0	0	0	0	0	0	0	0	0	0	0	0	0	0	0	0	0
300	0	0	0	0	0	3.298	8.3086	5.0599	3.4745	0	0	0	0	0	0	0	0	0	0	0	0	0	0	0	0	0	0	0	0	0	0	0	0	0	0	0	0	0	0	0	0	0	0	0	0	0	0	0	0	0	0	0	0
302	0	0	0	0	0	6.608	9.3627	8.1973	5.2206	0	0	0	0	0	0	0	0	0	0	0	0	0	0	0	0	0	0	0	0	0	0	0	0	0	0	0	0	0	0	0	0	0	0	0	0	0	0	0	0	0	0	0	0
304	0	0	0	0	0	9.93	10.4203	11.3459	6.9727	2.8516	0	0	0	0	0	0	0	0	0	0	0	0	0	0	0	0	0	0	0	0	0	0	0	0	0	0	0	0	0	0	0	0	0	0	0	0	0	0	0	0	0	0	0
306	0	0	0	0	0	13.2574	13.6534	13.791	8.7264	5.7105	0	0	0	0	0	0	0	0	0	0	0	0	0	0	0	0	0	0	0	0	0	0	0	0	0	0	0	0	0	0	0	0	0	0	0	0	0	0	0	0	0	0	0
308	0	0	0	0	0	16.5852	16.8865	15.5258	13.6118	8.5724	0	0	0	0	0	0	0	0	0	0	0	0	0	0	0	0	0	0	0	0	0	0	0	0	0	0	0	0	0	0	0	0	0	0	0	0	0	0	0	0	0	0	0
310	0	0	0	0	4.014	18.5019	20.1248	17.2631	18.5062	11.4388	3.8132	0	0	0	0	0	0	0	0	0	0	0	0	0	0	0	0	0	0	0	0	0	0	0	0	0	0	0	0	0	0	0	0	0	0	0	0	0	0	0	0	0	0
312	0	0	0	0	5.9898	22.0889	23.2274	21.97	22.2277	14.2234	7.5868	0	0	0	0	0	0	0	0	0	0	0	0	0	0	0	0	0	0	0	0	0	0	0	0	0	0	0	0	0	0	0	0	0	0	0	0	0	0	0	0	0	0
314	0	0	0	0	3.5179	24.5605	26.2961	26.6273	24.8739	19.3313	11.3208	0	0	0	0	0	0	0	0	0	0	0	0	0	0	0	0	0	0	0	0	0	0	0	0	0	0	0	0	0	0	0	0	0	0	0	0	0	0	0	0	0	0
316	0	0	0	1.9498	11.038	22.347	33.7423	31.1314	27.3995	24.3048	14.9655	3.9672	0	0	0	0	0	0	0	0	0	0	0	0	0	0	0	0	0	0	0	0	0	0	0	0	0	0	0	0	0	0	0	0	0	0	0	0	0	0	0	0	0
318	7.6349	0	0	0	16.1693	28.3109	39.4822	35.4348	32.0303	28.3233	18.4833	7.8398	0	0	0	0	0	0	0	0	0	0	0	0	0	0	0	0	0	0	0	0	0	0	0	0	0	0	0	0	0	0	0	0	0	0	0	0	0	0	0	0	0
320	19.5407	0.5714	5.7779	8.0334	23.9856	32.2115	44.099	39.625	36.5413	31.4773	22.0648	11.6176	0	0	0	0	0	0	0	0	0	0	0	0	0	0	0	0	0	0	0	0	0	0	0	0	0	0	0	0	0	0	0	0	0	0	0	0	0	0	0	0	0
322	17.4163	6.0822	0	16.8617	23.0759	35.3903	46.0038	46.7031	40.7423	34.3848	25.4342	15.2296	3.9379	0	0	0	0	0	0	0	0	0	0	0	0	0	0	0	0	0	0	0	0	0	0	0	0	0	0	0	0	0	0	0	0	0	0	0	0	0	0	0	0
324	17.8754	20.8017	11.3216	23.3083	28.4087	39.0719	45.2482	46.0942	44.7781	37.3159	28.6257	18.7109	7.741	0	0	0	0	0	0	0	0	0	0	0	0	0	0	0	0	0	0	0	0	0	0	0	0	0	0	0	0	0	0	0	0	0	0	0	0	0	0	0	0
326	48.8334	11.0435	14.3665	24.2524	31.0744	41.6292	48.139	51.2992	48.6267	40.1056	31.6274	22.1461	11.4042	0	0	0	0	0	0	0	0	0	0	0	0	0	0	0	0	0	0	0	0	0	0	0	0	0	0	0	0	0	0	0	0	0	0	0	0	0	0	0	0
328	31.4679	17.0302	21.7622	27.7207	37.7248	42.0134	50.3917	53.0035	49.4044	42.7491	34.485	25.4323	14.9222	3.5775	0	0	0	0	0	0	0	0	0	0	0	0	0	0	0	0	0	0	0	0	0	0	0	0	0	0	0	0	0	0	0	0	0	0	0	0	0	0	0
330	45.8801	36.2715	26.5638	28.0145	37.8552	44.6841	50.6913	55.3577	54.7975	45.2626	37.2977	28.547	18.2981	7.019	0	0	0	0	0	0	0	0	0	0	0	0	0	0	0	0	0	0	0	0	0	0	0	0	0	0	0	0	0	0	0	0	0	0	0	0	0	0	0
332	58.7182	36.601	37.4572	36.6084	40.8857	50.7194	51.8862	56.3043	58.1493	47.1347	39.5462	31.1541	20.8139	10.2138	0	0	0	0	0	0	0	0	0	0	0	0	0	0	0	0	0	0	0	0	0	0	0	0	0	0	0	0	0	0	0	0	0	0	0	0	0	0	0
334	40.7376	38.9133	42.0957	39.0208	44.5117	51.0362	49.8777	51.6381	56.4758	51.1151	41.5859	33.5468	23.1401	13.1984	3.6071	0	0	0	0	0	0	0	0	0	0	0	0	0	0	0	0	0	0	0	0	0	0	0	0	0	0	0	0	0	0	0	0	0	0	0	0	0	0
336	59.2712	40.8156	45.0847	39.4894	41.5028	49.6842	56.5078	59.3046	57.3353	53.4418	43.4608	35.3147	25.4547	15.9888	6.9918	0	0	0	0	0	0	0	0	0	0	0	0	0	0	0	0	0	0	0	0	0	0	0	0	0	0	0	0	0	0	0	0	0	0	0	0	0	0
338	54.7255	45.392	40.6681	42.1904	46.1911	51.5799	55.1147	57.5492	59.9626	56.2373	45.1806	36.9417	27.7524	19.4236	10.1645	0	0	0	0	0	0	0	0	0	0	0	0	0	0	0	0	0	0	0	0	0	0	0	0	0	0	0	0	0	0	0	0	0	0	0	0	0	0
340	65.9297	50.7114	50.862	46.4146	51.4099	56.1849	53.9051	59.639	60.4845	56.0438	47.9361	38.3944	29.853	22.6082	13.1214	4.4332	0	0	0	0	0	0	0	0	0	0	0	0	0	0	0	0	0	0	0	0	0	0	0	0	0	0	0	0	0	0	0	0	0	0	0	0	0
342	64.7657	53.3964	46.3437	51.4189	50.7553	57.5273	58.8947	59.6302	60.9251	56.2336	50.2534	39.8897	32.707	25.4213	15.9487	8.6222	0	0	0	0	0	0	0	0	0	0	0	0	0	0	0	0	0	0	0	0	0	0	0	0	0	0	0	0	0	0	0	0	0	0	0	0	0
344	74.1343	59.6504	48.257	51.143	56.5155	55.2911	61.4077	58.0302	59.2817	59.7513	51.1309	41.2385	35.3512	27.7854	20.4925	12.5667	3.3179	0	0	0	0	0	0	0	0	0	0	0	0	0	0	0	0	0	0	0	0	0	0	0	0	0	0	0	0	0	0	0	0	0	0	0	0
346	75.9653	66.8808	62.9957	58.2337	58.6356	57.2124	62.7169	57.8857	64.9323	58.8196	54.6539	47.0243	37.8848	30.0471	24.8095	16.3091	7.7548	0	0	0	0	0	0	0	0	0	0	0	0	0	0	0	0	0	0	0	0	0	0	0	0	0	0	0	0	0	0	0	0	0	0	0	0
348	76.8451	71.5495	66.1121	57.0384	62.3232	61.0861	62.9807	63.0899	61.6258	64.1199	59.515	51.8209	40.3351	34.0259	28.546	19.8811	11.9762	5.2273	0	0	0	0	0	0	0	0	0	0	0	0	0	0	0	0	0	0	0	0	0	0	0	0	0	0	0	0	0	0	0	0	0	0	0
350	94.9562	84.1958	67.3059	68.6668	61.973	66.8594	66.5227	65.1706	63.6473	63.9208	61.548	53.9724	42.6116	37.7638	31.6788	23.6751	15.9732	8.7672	2.7699	0	0	0	0	0	0	0	0	0	0	0	0	0	0	0	0	0	0	0	0	0	0	0	0	0	0	0	0	0	0	0	0	0	0
352	105.0633	82.7479	76.4565	65.5254	67.8049	68.5581	66.552	67.4621	65.9628	65.6392	64.7557	58.034	49.1153	41.269	34.6164	27.2497	19.7495	12.2512	6.3648	0.1969	0	0	0	0	0	0	0	0	0	0	0	0	0	0	0	0	0	0	0	0	0	0	0	0	0	0	0	0	0	0	0	0	0
354	103.2569	92.8581	77.7232	73.5245	71.0984	69.8429	68.6399	70.3545	71.3921	70.6395	66.2314	60.3341	52.0111	44.5345	37.7541	30.6007	24.6907	18.3183	9.8179	3.9651	0	0	0	0	0	0	0	0	0	0	0	0	0	0	0	0	0	0	0	0	0	0	0	0	0	0	0	0	0	0	0	0	0
356	101.4528	92.2316	84.0781	79.9752	77.9957	71.0554	72.4817	73.8978	76.7179	72.321	69.5716	66.7324	58.8852	47.7239	42.159	36.5547	30.8987	24.1199	16.451	7.8321	1.9556	0	0	0	0	0	0	0	0	0	0	0	0	0	0	0	0	0	0	0	0	0	0	0	0	0	0	0	0	0	0	0	0
358	120.1644	104.8778	93.4086	80.0335	81.4545	76.6976	76.9603	73.1328	77.578	76.1257	70.5123	69.5386	64.3033	53.955	47.7872	42.3289	37.116	29.7197	21.4082	13.3049	7.3404	0	0	0	0	0	0	0	0	0	0	0	0	0	0	0	0	0	0	0	0	0	0	0	0	0	0	0	0	0	0	0	0
360	117.4936	111.1201	96.8435	92.3456	86.6248	83.1171	83.4362	79.3897	81.0927	79.006	76.7826	74.537	67.6904	61.9141	53.1334	48.0289	43.037	35.0557	27.6804	18.1388	9.9348	2.7146	0	0	0	0	0	0	0	0	0	0	0	0	0	0	0	0	0	0	0	0	0	0	0	0	0	0	0	0	0	0	0
362	139.612	116.7217	112.5681	98.3974	89.4711	92.7336	88.0438	84.0976	85.6742	83.1674	82.9727	79.9729	74.4409	66.386	58.6088	53.917	48.264	41.2063	33.8935	24.2269	15.1864	7.1202	0	0	0	0	0	0	0	0	0	0	0	0	0	0	0	0	0	0	0	0	0	0	0	0	0	0	0	0	0	0	0
364	165.8628	131.9937	116.3851	107.4836	103.4277	95.1336	93.5169	90.3673	89.3104	89.5836	86.9782	85.2146	81.1712	71.3639	66.9858	59.601	53.309	48.7187	39.9027	29.543	19.8617	11.771	1.6415	0	0	0	0	0	0	0	0	0	0	0	0	0	0	0	0	0	0	0	0	0	0	0	0	0	0	0	0	0	0
366	168.2678	147.4004	126.1526	117.5485	110.0651	100.3077	100.5617	95.1799	95.5917	93.9402	92.6871	91.921	87.4485	81.7273	74.7095	65.1342	59.7633	56.0239	45.7453	35.6699	23.4554	15.1175	8.0584	0	0	0	0	0	0	0	0	0	0	0	0	0	0	0	0	0	0	0	0	0	0	0	0	0	0	0	0	0	0
368	178.6899	157.5403	134.9515	123.3149	117.0613	112.8822	106.9951	99.364	100.4574	99.4541	99.6381	99.5879	95.7902	89.5909	80.3093	70.5324	66.816	61.6	51.4948	41.6339	31.0865	19.7558	11.2708	0	0	0	0	0	0	0	0	0	0	0	0	0	0	0	0	0	0	0	0	0	0	0	0	0	0	0	0	0	0
370	192.1955	157.5843	146.7422	136.6581	125.1697	119.109	111.5231	109.2409	106.49	106.5947	106.378	106.1415	104.2169	97.2532	91.1502	80.5068	73.6407	66.9911	57.1728	47.4108	37.5837	24.8284	15.4956	5.2487	0	0	0	0	0	0	0	0	0	0	0	0	0	0	0	0	0	0	0	0	0	0	0	0	0	0	0	0	0
372	212.1672	189.1661	165.233	143.7449	135.4613	124.1322	123.5769	116.7804	117.5093	116.0212	115.1773	111.7009	111.2356	105.8066	99.0714	90.7096	80.6503	72.6822	62.9841	55.2387	44.904	30.2909	20.0751	11.0567	0	0.255	0.2981	0	0	0	0	0	0	0	0	0	0	0	0	0	0	0	0	0	0	0	0	0	0	0	0	0	0
374	231.4617	200.2258	174.8843	157.7249	151.2138	139.2491	129.4451	124.8974	121.4087	125.6511	122.7085	121.2937	119.223	115.2895	107.6451	99.9074	87.5106	80.2786	72.596	64.8563	52.0765	37.3874	24.6357	15.2377	3.4969	0.7575	0.5902	0	0	0	0	0	0	0	0	0	0	0	0	0	0	0	0	0	0	0	0	0	0	0	0	0	0
376	237.2745	216.3247	196.1613	175.0492	158.5336	146.8277	141.6305	134.7888	130.0892	131.2553	130.7818	132.6105	131.438	124.9542	117.1773	109.7096	97.7503	89.5906	81.9406	72.8675	59.0495	43.7384	30.646	18.3969	8.5399	1.2486	0.8755	0	0	0	0	0	0	0	0	0	0	0	0	0	0	0	0	0	0	0	0	0	0	0	0	0	0
378	255.2864	231.3094	206.3203	181.7097	171.99	157.9657	148.5373	142.2748	139.0476	139.1558	140.7792	143.1741	140.177	137.5831	129.4262	119.456	107.7034	98.5997	90.9905	80.6216	65.8029	51.4679	36.3456	23.1219	14.3436	1.7271	0.5767	0	0	0	0	0	0	0	0	0	0	0	0	0	0	0	0	0	0	0	0	0	0	0	0	0	0
380	283.0477	246.6374	224.2691	195.344	186.5657	165.9266	159.2042	150.968	150.6906	150.2358	149.8321	153.896	153.31	147.7379	139.0392	131.4384	116.9314	107.3741	98.4797	87.645	72.3807	59.0046	42.6546	29.0691	18.0812	7.461	0.2848	0	0	0	0	0	0	0	0	0	0	0	0	0	0	0	0	0	0	0	0	0	0	0	0	0	0
382	299.598	263.8728	235.8	213.4651	197.6633	175.7636	167.7166	159.7802	155.9012	157.3563	159.1352	161.3473	163.3701	157.7827	151.6915	143.6221	129.2877	116.4449	106.2493	94.3855	81.2838	66.6512	50.2065	34.607	21.6288	12.2683	0	0.4037	0.4721	0	0	0	0	0	0	0	0	0	0	0	0	0	0	0	0	0	0	0	0	0	0	0	0
384	322.0245	285.6265	244.4936	224.5271	206.3962	195.8415	178.6778	169.8847	164.2025	167.6861	170.7596	172.1019	173.5476	170.0782	162.7703	151.3132	141.8925	126.1969	113.8925	101.0153	90.0484	74.178	56.9138	41.0437	27.9003	16.0764	4.8217	1.2016	0.9368	0	0	0	0	0	0	0	0	0	0	0	0	0	0	0	0	0	0	0	0	0	0	0	0
386	334.647	315.0355	259.3201	239.8133	218.8151	200.2282	186.9126	180.8722	175.4629	176.0136	176.8192	183.4846	184.9978	179.733	175.0363	163.3395	151.8996	137.418	121.8647	110.0844	98.4446	81.89	63.7519	47.4062	34.1035	20.6225	9.9636	1.9944	1.3993	0.1319	0	0	0	0	0	0	0	0	0	0	0	0	0	0	0	0	0	0	0	0	0	0	0
388	342.0978	316.0147	278.9247	250.4995	228.1655	206.1152	198.4176	187.231	182.9421	184.3131	185.5239	191.5701	191.6442	190.7873	185.35	174.163	161.876	147.7793	130.2612	119.531	106.5765	89.1445	70.8	53.1989	38.0848	25.6239	13.2966	2.7907	1.2374	0.2636	0	0	0	0	0	0	0	0	0	0	0	0	0	0	0	0	0	0	0	0	0	0	0
390	367.5299	333.2799	291.2884	266.7093	244.1105	224.7514	209.6794	195.5227	191.4506	194.4488	198.3157	205.364	205.3155	204.2998	197.9038	185.373	173.2693	160.4434	142.3962	128.9794	114.7086	96.3982	77.8472	60.564	45.9658	29.8899	18.303	8.7427	1.0755	0.3951	0	0	0	0	0	0	0	0	0	0	0	0	0	0	0	0	0	0	0	0	0	0	0
392	399.4637	359.6989	311.8448	278.2608	256.1224	237.8577	218.3328	205.6739	202.7515	200.6583	204.7691	213.937	215.9336	214.403	210.5922	198.7217	184.2697	171.138	155.5183	137.5975	121.36	103.0293	85.9428	68.4791	51.8793	35.4553	22.8342	12.4183	0.9084	1.025	0.7431	0	0	0	0	0	0	0	0	0	0	0	0	0	0	0	0	0	0	0	0	0	0
394	421.1084	368.8961	324.5676	293.0933	266.7104	247.5507	224.4698	215.0302	210.395	208.8606	212.9578	221.0193	230.3391	225.8152	217.796	211.0491	196.7456	181.1786	164.9849	146.1018	129.5475	112.7641	95.3801	76.2938	58.2287	42.0435	27.562	16.7446	5.6248	2.1449	1.4765	0	0	0	0	0	0	0	0	0	0	0	0	0	0	0	0	0	0	0	0	0	0
396	441.816	394.0031	345.6327	311.051	281.764	261.9547	237.2443	225.4808	218.4915	219.2389	222.2832	233.7998	237.5704	236.788	231.6099	223.8152	208.6838	196.3117	176.7462	156.6536	139.462	122.5656	104.6534	84.1385	64.0199	48.4936	32.2393	20.7811	9.9801	3.2552	2.2037	0.2037	0	0	0	0	0	0	0	0	0	0	0	0	0	0	0	0	0	0	0	0	0
398	456.197	405.2192	364.8933	334.2361	297.5412	270.7838	250.829	236.7557	228.3329	229.4439	235.7707	245.8798	249.3548	251.9236	248.6208	238.1427	225.6461	208.0582	190.2953	172.2123	149.517	132.2694	114.0174	92.0516	72.5591	55.2978	39.3773	24.5111	15.0064	4.3611	1.9376	0.406	0	0	0	0	0	0	0	0	0	0	0	0	0	0	0	0	0	0	0	0	0
400	488.8591	448.7946	383.4784	343.728	311.8098	282.755	260.568	239.6277	240.3071	236.1633	246.1114	253.065	260.0593	261.6025	258.7574	250.9666	238.3898	223.3338	202.0365	184.0651	159.511	141.8078	122.0172	100.2465	81.0462	62.615	45.8156	28.9686	19.0129	8.6008	1.6733	0.6069	0	0	0	0	0	0	0	0	0	0	0	0	0	0	0	0	0	0	0	0	0
402	499.9344	463.623	403.9545	360.362	329.4101	298.4355	268.4742	256.4648	248.9236	245.7844	252.9675	264.0717	272.7214	274.888	274.0393	264.0747	253.3518	234.2844	218.4556	196.7337	173.5171	151.0266	129.7421	108.8642	89.3269	70.5499	51.9095	35.4832	22.6286	13.5234	1.4085	1.1856	0.688	0	0	0	0	0	0	0	0	0	0	0	0	0	0	0	0	0	0	0	0
404	522.1781	470.0326	423.6873	381.8646	343.331	311.0464	286.0993	265.4173	260.2153	256.407	261.5952	271.9936	284.3225	286.9279	287.0185	278.082	266.6719	249.9163	232.0518	209.8672	184.9643	160.1516	138.0612	117.3953	97.5248	77.7912	58.9087	41.0948	27.579	17.5111	7.2032	2.1369	1.3689	0	0	0	0	0	0	0	0	0	0	0	0	0	0	0	0	0	0	0	0
406	538.4037	468.14	438.0028	391.6714	360.2891	328.1875	296.2017	274.7581	269.3911	261.5846	270.0947	283.5054	293.0407	300.3261	299.1891	289.373	276.0995	262.4731	243.7483	221.2261	198.0211	169.5015	146.9061	125.765	105.5024	85.1182	64.4806	47.6766	31.0453	21.8071	10.1893	3.0839	2.0463	0.0493	0	0	0	0	0	0	0	0	0	0	0	0	0	0	0	0	0	0	0
408	584.7123	499.6218	445.0571	405.6152	377.5836	335.1268	310.3837	287.4252	278.9018	275.1118	280.3953	295.5422	302.6816	311.3581	310.5052	303.3169	290.7874	277.7982	259.023	235.4482	210.9689	184.1447	155.9909	134.336	112.9735	92.5737	72.7632	52.8341	36.859	24.9805	15.5106	4.0319	1.4763	0.0984	0	0	0	0	0	0	0	0	0	0	0	0	0	0	0	0	0	0	0
410	595.5425	529.3339	463.3314	443.22	391.2865	349.5273	318.9306	297.876	287.9239	280.9795	294.1587	302.9005	313.6164	319.1112	327.564	319.0571	305.4336	291.8307	272.7563	249.4166	225.3874	197.8429	165.057	142.2077	120.4278	101.1484	80.1621	59.9922	43.3243	29.5416	19.744	8.5106	0.9081	0.1474	0	0	0	0	0	0	0	0	0	0	0	0	0	0	0	0	0	0	0
412	636.3725	529.3943	480.2674	445.4671	405.8038	364.8742	333.9873	308.2528	296.0095	289.7237	295.8895	311.5116	320.0882	333.1	334.9958	328.2282	321.3836	305.1111	286.2853	263.9071	236.3348	211.013	174.1178	150.8927	130.1588	110.8484	87.5505	66.6258	48.2487	33.925	23.1708	12.9509	0.3418	0.7156	0.6686	0	0	0	0	0	0	0	0	0	0	0	0	0	0	0	0	0	0
414	627.4562	563.8658	492.7151	462.1696	422.9815	372.616	341.2347	319.8301	305.3251	293.6742	307.6444	317.3447	332.4618	340.1449	345.4502	340.3251	333.0429	319.5164	297.8443	274.1145	249.7775	221.1227	188.4645	160.7198	139.8721	118.1955	94.9232	72.4133	54.5154	39.0506	27.1576	17.3547	6.8871	1.8008	1.3351	0	0	0	0	0	0	0	0	0	0	0	0	0	0	0	0	0	0
416	634.6884	561.4911	517.773	470.9289	433.2025	392.9749	359.5634	325.0345	313.4794	308.6545	313.7627	331.2238	343.4077	346.891	355.9236	354.9997	347.6486	331.0904	313.7476	291.3833	262.281	234.0622	201.4319	170.92	149.9106	125.8139	102.5138	79.3894	59.8072	44.1629	31.5801	20.88	11.3456	2.8894	2.0043	0.1917	0	0	0	0	0	0	0	0	0	0	0	0	0	0	0	0	0
418	679.6462	598.911	528.8168	491.8201	442.816	405.213	366.4925	337.0666	321.5529	316.9582	321.2073	333.654	349.7821	359.0851	369.8807	364.2744	361.278	343.5586	328.2471	303.0511	277.576	246.6423	216.5247	181.5633	157.9781	133.7555	110.8854	87.3397	66.7816	50.0997	35.676	24.5856	15.6143	3.9887	1.7857	0.3846	0	0	0	0	0	0	0	0	0	0	0	0	0	0	0	0	0
420	687.4688	624.9684	551.4229	505.7547	459.6071	422.0894	378.7516	345.9115	330.87	324.9408	331.8551	343.856	359.3479	369.0962	376.3957	378.7246	372.3528	358.4893	342.7721	317.6265	291.2883	259.8676	226.2383	192.2827	166.6174	142.7788	119.5004	95.3446	73.2896	55.5697	40.9121	27.5053	19.1991	8.502	1.5658	0.5786	0	0	0	0	0	0	0	0	0	0	0	0	0	0	0	0	0
422	665.5615	627.4642	567.9504	524.7337	476.5832	428.2184	391.0337	354.323	338.369	332.254	337.9691	350.4604	367.1004	376.6206	389.494	389.0949	382.526	371.2897	353.1127	332.9503	301.5058	273.6504	239.8874	204.7089	175.8782	151.9023	127.5482	103.429	79.1699	60.3599	44.7945	32.2528	22.6571	13.1879	1.3449	1.1747	0.6962	0	0	0	0	0	0	0	0	0	0	0	0	0	0	0	0
424	685.7705	634.4434	589.0382	536.6779	493.1697	438.7731	400.7829	367.5712	349.1142	337.7363	347.1088	358.9743	376.6703	389.8951	393.2611	398.1869	396.3183	383.9635	367.8282	344.0425	314.1971	283.5175	249.311	215.125	185.2068	160.431	135.6541	111.5721	86.163	67.1849	50.5257	35.5788	26.1204	16.3793	6.6744	2.1767	1.397	0	0	0	0	0	0	0	0	0	0	0	0	0	0	0	0
426	727.4105	656.6973	595.66	542.9884	497.5746	452.7254	408.0702	379.2516	356.5113	345.1349	351.3939	364.697	380.7065	393.8884	403.9317	412.1427	407.2388	396.0974	381.214	358.8722	330.0888	297.349	259.1555	226.1908	194.921	168.9633	144.1627	119.0539	93.3571	74.1445	55.5121	39.3167	29.1704	20.238	10.5196	3.1903	2.1056	0.3571	0	0	0	0	0	0	0	0	0	0	0	0	0	0	0
428	767.5362	686.9718	608.7831	560.6851	519.653	456.1726	421.4262	383.449	367.129	349.9466	359.2244	373.115	382.4375	399.1779	411.9086	415.2822	417.4054	412.4951	393.6665	372.2599	341.289	307.9248	271.723	236.9251	207.1624	177.8671	153.003	124.9711	100.7857	78.7119	61.1055	45.7654	32.8633	22.9146	14.093	4.2204	2.2473	0.7188	0	0	0	0	0	0	0	0	0	0	0	0	0	0	0
430	739.592	682.9138	608.2399	574.8479	529.897	477.8892	430.5609	390.3526	368.1803	357.9361	364.5777	377.4699	395.7781	408.8692	421.6254	427.9912	429.7872	423.175	408.4896	384.7607	356.3408	320.5693	282.3953	249.1686	217.0008	186.8812	160.0981	130.9586	108.3087	85.3074	65.9039	49.9833	37.4656	25.7445	17.1171	8.0715	2.3906	1.085	0	0	0	0	0	0	0	0	0	0	0	0	0	0	0
432	757.8201	708.0066	624.4656	583.4967	535.8898	489.4953	443.0911	403.6955	380.348	369.2367	367.8579	383.6964	401.7392	411.729	427.3665	434.9132	436.7708	435.2161	418.0905	397.7085	365.1279	330.8121	291.5095	259.7306	226.0341	195.7891	166.1598	138.5733	115.5242	91.8847	70.9216	54.3131	41.2373	29.4921	20.4471	11.5997	2.5328	1.8797	0.9218	0	0	0	0	0	0	0	0	0	0	0	0	0	0
434	802.3704	695.4465	653.275	596.0998	555.4003	496.7988	440.2375	412.3897	382.5837	375.1088	373.9	387.632	401.2328	422.688	438.3722	445.3117	448.9172	445.3295	429.4946	404.8558	377.3235	341.8288	304.7727	267.6018	237.4571	206.1329	172.2807	146.2679	122.264	98.5315	75.9085	59.1224	45.5588	33.4898	23.9557	15.5087	6.5217	3.1103	1.8534	0	0	0	0	0	0	0	0	0	0	0	0	0	0
436	785.0819	718.398	646.4949	602.8349	562.6792	505.232	457.2803	414.4213	388.2011	379.4192	378.6825	393.5502	407.5558	420.6584	441.5208	449.5336	456.5976	450.1693	440.9849	418.1156	386.8122	353.3195	312.9343	278.4284	247.0747	214.8726	178.6918	153.6848	129.2397	105.3834	81.1034	63.4664	49.6137	36.8411	26.3443	18.8342	10.4633	4.3594	2.7981	0.437	0	0	0	0	0	0	0	0	0	0	0	0	0
438	803.428	734.8818	654.3226	612.5161	565.7649	510.9079	466.4307	420.0331	401.1477	381.2335	385.614	394.5929	414.6752	425.657	444.9745	455.9519	463.7386	461.4725	450.0142	429.2608	399.9994	363.511	324.3829	288.2804	254.3422	222.818	185.4142	160.6108	135.4624	110.9371	86.8105	68.6347	54.4099	41.1879	30.0289	21.5211	13.1006	5.6315	2.9138	0.8807	0	0	0	0	0	0	0	0	0	0	0	0	0
440	796.1337	740.8762	691.6619	614.7709	580.7391	521.6889	479.495	430.1656	404.063	388.748	388.2143	404.0406	415.3546	433.276	449.6702	465.8506	471.9574	471.0828	461.7299	437.1543	411.6383	372.5473	332.4655	293.7672	262.9272	232.1624	197.101	166.0966	140.7484	115.7269	92.5995	73.7085	59.0032	44.1002	33.3037	24.425	16.6327	8.5591	3.0308	1.3311	0	0	0	0	0	0	0	0	0	0	0	0	0
442	768.8979	761.2001	693.3917	634.7228	592.4816	532.807	478.6377	435.7562	409.8078	393.3585	394.3686	403.2404	418.9164	435.325	454.2407	470.7479	479.2163	473.7856	469.2375	447.7573	419.5005	383.0755	342.2267	302.9231	271.4791	239.4997	204.3248	171.518	145.9892	119.8275	98.3943	78.0053	62.595	50.1434	36.5974	27.7172	19.3543	12.338	3.1469	2.1269	0.9104	0	0	0	0	0	0	0	0	0	0	0	0
444	816.704	732.2329	687.0802	636.0174	590.3646	542.5224	485.4695	443.5442	413.2936	395.5082	396.959	409.5784	423.0554	440.8919	459.3161	469.5414	488.2489	487.5575	473.6566	458.7542	429.586	392.0803	351.1598	311.6041	280.356	245.848	211.5527	177.0013	150.6309	123.975	104.2634	83.143	67.961	53.5773	40.5068	30.4351	22.5695	14.6744	7.6673	3.2758	1.8331	0	0	0	0	0	0	0	0	0	0	0	0
446	805.378	764.3497	685.3591	649.7746	598.7283	537.1646	495.7149	457.2582	420.6831	400.9985	397.9352	410.7075	427.8923	443.7449	460.6967	477.5315	491.7358	490.4048	481.2275	468.8658	435.2051	401.5828	359.791	319.4886	285.3721	254.3489	221.5955	182.6654	155.0926	130.1141	109.3102	88.4034	73.1714	57.1602	45.0223	33.0854	25.4955	17.9449	11.0467	4.4428	2.7701	0.5674	0	0	0	0	0	0	0	0	0	0	0
448	816.6915	758.3561	705.7027	651.5815	603.5712	552.7825	504.1153	456.8856	426.3129	405.1392	399.2714	412.1034	422.7433	444.3938	463.5693	481.1076	494.2292	496.5418	492.5428	468.0232	444.2808	408.5028	365.8055	325.2837	293.4324	260.9361	228.7391	192.0014	159.7089	136.4225	112.5438	93.7955	78.4623	61.6489	49.1558	37.9226	28.0156	21.6697	13.5554	5.6304	3.1987	1.1438	0	0	0	0	0	0	0	0	0	0	0
450	822.1554	742.57	707.9572	661.9377	611.5032	557.9966	504.1981	453.2976	429.6161	408.4401	404.4292	413.315	427.6269	442.0693	463.8149	481.5326	493.9044	499.3845	489.7626	477.033	446.2049	412.0092	371.3446	332.4085	298.621	266.2713	234.2426	197.8569	164.3812	140.8576	115.816	99.2655	82.6016	65.1277	53.199	40.845	30.9066	24.0173	16.6697	9.8349	3.6338	1.7293	0	0	0	0	0	0	0	0	0	0	0
452	829.7478	760.6348	723.4309	663.1112	630.0856	565.1876	511.9802	460.5936	427.7673	413.3591	406.4562	411.5498	431.3685	444.9945	468.384	482.9812	495.8532	502.3179	493.7472	482.8295	453.2858	417.6291	378.7522	336.9496	302.6926	270.6392	237.9449	204.486	169.1881	144.4251	121.5616	104.4423	86.8383	70.9512	57.0082	46.0474	34.5485	26.1372	19.6119	11.5957	4.0771	2.7243	1.1504	0	0	0	0	0	0	0	0	0	0
454	836.8295	771.3005	707.2241	667.9444	614.2391	570.6837	517.6322	466.9487	434.1384	412.953	411.9654	412.7462	430.0306	445.9493	464.9472	484.9363	496.7593	504.814	503.1586	488.8339	460.8597	422.9491	381.7671	343.053	308.1164	278.4772	244.3775	209.5065	176.0461	148.0336	127.3903	108.8469	91.1357	73.8538	61.1564	48.5216	37.6304	29.379	22.555	14.848	8.7681	4.1381	2.3198	0	0	0	0	0	0	0	0	0	0
456	832.0777	768.7025	709.2342	665.3491	634.5144	572.9829	521.8333	470.0534	435.9574	416.1922	412.071	414.8516	428.7877	446.7382	461.6475	482.327	500.3355	503.8061	504.6339	490.606	462.4711	428.0956	386.3346	347.9995	313.8632	281.8226	249.095	214.9174	183.0671	151.9186	132.6504	113.4869	95.6415	76.6477	63.6925	52.0133	41.7149	31.7415	24.5001	17.7637	10.2577	5.5834	3.5138	0.6151	0	0	0	0	0	0	0	0	0
458	803.001	761.2377	710.3022	658.9809	620.8599	569.1983	518.8081	469.5045	437.5801	420.2778	411.5788	415.4046	432.1956	446.4153	464.44	487.4022	498.6206	503.3615	499.3064	491.1254	463.402	426.695	389.5937	351.8962	318.8461	288.0829	250.6521	220.3914	185.9277	156.0918	137.2177	117.28	98.706	80.5899	68.9512	55.5038	44.6821	35.015	27.2165	20.2866	13.5878	7.0668	3.8047	1.2439	0	0	0	0	0	0	0	0	0
460	827.8671	761.9795	705.1363	676.7439	623.4244	579.5447	519.2183	477.5961	448.4256	425.1503	414.5164	418.5281	429.3444	445.2494	461.9228	482.3279	498.155	510.0566	502.0291	489.5329	465.0358	431.7913	393.1381	354.4238	323.5614	290.6324	258.0838	222.7351	191.1005	162.6735	140.1841	120.0191	101.1459	84.6023	72.5369	59.8241	47.5918	38	29.0371	22.4668	16.4572	9.5247	4.1012	1.8865	0	0	0	0	0	0	0	0	0
462	812.6751	775.9896	713.0825	663.1676	627.2813	580.5341	521.9976	476.1989	449.3811	425.2863	414.7614	417.4945	428.8325	446.4512	462.46	484.3329	493.2852	505.4597	502.6384	486.3485	468.6349	436.1003	394.1589	357.7561	324.2529	294.012	262.2491	227.9903	195.1237	167.2133	143.3411	122.9264	103.5115	88.782	76.227	64.0005	51.1681	41.2413	32.3202	25.1778	18.7419	11.913	4.4081	2.7433	0.9823	0	0	0	0	0	0	0	0
464	789.9025	744.3996	717.9737	684.6294	639.7013	584.0368	526.702	482.9343	448.0286	423.9204	411.4277	421.9764	432.2518	442.9644	457.8247	476.2965	493.3723	508.2445	500.3807	490.7934	469.0015	435.3102	396.2143	360.4305	328.0032	296.5379	263.6472	231.749	200.6558	170.3869	146.5341	125.6506	105.905	93.0391	78.9503	66.7207	53.7301	44.199	34.9955	27.0886	21.6622	14.5137	8.2472	3.8201	1.988	0	0	0	0	0	0	0	0
466	777.5287	755.3486	723.6383	659.8324	641.7978	588.936	529.7993	485.2167	450.2774	427.2873	419.1563	416.7426	425.5896	435.6338	455.9574	478.7245	491.5005	503.1845	501.1948	486.7952	465.3117	436.4997	400.2007	359.7414	331.8171	299.4033	268.0317	235.2299	205.4402	176.5123	149.8093	128.3342	110.4171	96.3848	81.7422	69.7488	57.6707	46.8915	37.4724	29.6994	23.2182	17.1157	10.4126	4.9229	3.0181	0.6284	0	0	0	0	0	0	0
468	764.8902	751.3933	706.2808	674.872	631.7824	580.8844	536.3887	483.0981	451.3778	430.1655	414.7996	418.3088	425.6458	436.6453	452.2892	469.5552	485.5919	497.2634	496.2785	483.347	463.3636	436.1233	397.3547	359.9693	329.2548	302.8527	272.7225	238.0979	206.4726	177.8916	154.6441	131.0863	115.0438	97.7525	84.6045	72.8758	59.4872	49.9201	40.8616	31.6296	24.8943	19.3158	13.4462	6.0529	3.5103	1.2722	0	0	0	0	0	0	0
470	751.7315	742.9637	704.5374	677.5959	631.2556	574.7094	526.0874	483.8611	450.0204	424.9428	417.2252	415.1397	423.0941	434.4558	447.3026	471.3097	479.7	493.2433	491.7877	485.3428	462.9704	433.6149	396.3798	359.3709	329.2352	302.7613	273.8561	239.2256	209.9204	183.9755	157.7813	133.8676	117.6685	99.1248	87.5128	75.1578	63.5115	52.5479	43.9457	34.0741	27.1654	21.1899	15.77	9.4475	4.0136	1.9314	0	0	0	0	0	0	0
472	739.8985	743.8386	696.4485	662.7419	632.0675	579.0994	537.0751	482.0963	450.2219	425.8387	409.9144	412.5179	416.8836	425.4989	447.5741	460.9249	476.5295	488.7928	487.6723	479.316	460.9406	431.6433	396.1509	362.386	330.8911	302.4604	274.5642	241.1245	210.9447	184.0072	160.6114	137.0047	119.5536	102.45	90.5161	77.6579	66.3629	56.0355	46.7763	37.1478	28.2597	23.1326	17.0146	11.4122	4.5386	2.9218	1.1406	0	0	0	0	0	0
474	727.4351	710.1003	672.6103	651.9341	627.1835	578.1808	533.2847	485.6956	451.8269	425.8046	412.6094	410.6747	411.9005	421.0005	439.7598	454.9822	471.3313	482.5731	480.6703	469.1257	453.1623	429.7602	389.3948	359.7492	332.0316	303.9049	274.9096	243.1561	212.948	185.4307	162.5576	138.9474	121.4444	105.8302	93.2326	80.1988	68.0235	58.7682	48.4768	39.2433	30.5641	24.8944	19.0375	14.1605	8.5212	4.2536	2.3136	0	0	0	0	0	0
476	713.6604	699.8242	680.8416	650.9197	623.3686	578.5545	524.5101	481.7253	447.9472	418.28	405.1496	407.8805	411.2655	412.6742	430.8438	450.3036	464.3362	470.9381	472.1787	466.3056	450.4832	425.9269	388.92	357.4438	331.6134	303.9038	273.2884	243.4268	215.1419	189.9435	165.9949	142.5387	123.228	108.8258	95.9021	82.705	69.1428	61.0624	50.1469	41.5629	32.1716	26.1469	21.0751	15.2508	10.7578	5.6164	3.5156	0.7676	0	0	0	0	0
478	698.6471	688.4031	693.0023	652.2287	621.1599	574.3353	518.6328	476.4504	444.066	415.1977	407.7143	401.9815	405.9262	410.5229	428.3384	443.5747	457.8586	468.5038	467.4452	460.6997	442.9637	416.2807	386.9979	356.5888	326.9351	303.3057	273.8004	243.6423	212.6157	188.3518	167.2379	143.3424	124.9037	111.2423	97.8189	84.1141	71.1324	61.8779	52.6647	42.6931	35.341	28.5621	23.0956	17.7485	12.4427	7.0066	4.1752	1.5536	0	0	0	0	0
480	683.1059	676.5282	662.7842	640.768	615.1728	567.5621	524.546	472.916	446.375	418.8537	400.4562	401.7151	404.4101	409.167	418.4028	430.8119	450.5614	460.4344	460.4535	452.556	436.9717	416.3086	381.5436	351.079	327.2211	301.7655	272.1949	246.4584	213.4097	190.272	169.9644	146.7487	128.1915	112.6273	99.0442	85.1644	73.1499	63.202	55.0238	44.9944	37.1893	30.2358	24.1624	19.2289	14.254	9.081	4.8493	2.3579	0	0	0	0	0
482	665.5992	662.7665	661.6004	643.5854	602.6496	558.6701	518.1568	472.5095	443.5516	415.8254	396.8059	396.1413	394.5843	402.3585	411.0795	426.6061	443.6473	448.7515	451.4542	449.0949	427.8595	409.5668	378.2974	349.1867	325.0688	299.1371	273.7364	245.1794	216.1784	191.1314	169.7416	149.022	129.086	113.7776	100.0633	86.0131	75.0394	65.1802	56.178	46.4522	38.6285	30.5745	25.9391	21.4578	15.6982	10.8667	5.5266	3.2457	1.0059	0	0	0	0
484	647.6792	648.6459	647.9781	627.1877	599.8052	557.941	513.3429	472.4526	439.4607	408.8813	393.0739	389.6435	393.636	396.6492	407.7067	418.21	429.0608	441.5001	445.6843	443.2861	425.2767	405.4641	373.0972	347.2222	320.6099	300.3856	272.0315	242.6185	217.6431	192.0038	172.1191	148.9532	132.8246	114.9293	101.0592	86.8626	76.9518	66.4419	58.6271	48.5524	40.4453	32.9601	26.9353	22.5283	17.2298	12.9271	8.3381	4.2221	2.031	0	0	0	0
486	629.2207	634.0397	635.4183	615.7983	596.5179	558.1356	507.9571	469.186	434.1827	412.6423	394.4328	386.9888	386.0123	387.2045	396.9085	420.1131	425.2982	433.6225	441.2893	430.3682	416.4462	397.1882	369.2697	341.9622	320.7852	299.2713	271.7125	241.6339	216.1294	193.2229	172.9614	152.1891	134.7848	116.0595	102.0235	88.8708	78.5002	67.7026	60.0704	50.5547	41.9798	34.1081	28.0418	23.1865	19.3269	14.609	9.9086	5.2154	3.0746	0.5426	0	0	0
488	610.2424	618.9632	622.4158	603.6924	582.1488	555.3837	510.5166	471.1344	431.6542	402.6982	390.3652	381.9737	386.7404	383.5267	391.4496	405.6419	419.2326	429.9453	430.3966	427.0053	414.1077	394.4913	364.4705	339.405	319.5467	297.237	269.2601	242.7506	214.7619	193.0686	173.8739	152.1369	136.1178	119.4543	102.9684	90.8837	79.2987	68.9619	61.5718	53.5163	43.6579	36.7378	28.7192	25.1465	20.427	16.1272	11.7438	6.225	3.3416	1.0948	0	0	0
490	590.8811	603.5516	609.106	605.4774	593.6265	539.4372	494.8845	464.8905	423.8348	398.5706	390.4832	380.9726	377.2691	376.2304	385.8825	398.2946	411.1729	418.6361	423.949	420.8422	404.809	387.5284	360.5283	336.6569	315.2572	294.3262	270.0773	242.3266	215.2254	192.9275	174.156	152.402	138.7213	120.3681	103.914	92.164	80.0991	70.2331	60.0806	53.2417	45.4228	38.1525	31.1087	25.6233	22.1799	17.7163	12.7038	8.8322	3.6129	1.6567	0	0	0
492	571.7031	588.5757	596.0791	600.6814	582.5551	544.7669	495.4797	456.4833	430.7634	400.7484	382.5801	378.8436	377.7624	371.1779	383.2482	389.5185	403.6266	412.6211	412.2218	409.1544	398.3681	381.4906	355.8875	330.8858	312.6377	291.6951	268.2422	241.4995	214.8015	194.3049	173.8819	153.5878	139.0234	121.8478	104.9604	93.161	81.5439	71.5838	61.489	54.4685	46.4778	39.0327	32.5173	27.2867	22.7915	18.8684	14.4237	10.1149	3.892	2.4836	0.9454	0	0
494	552.098	573.4207	582.7098	577.8467	571.2003	526.4959	490.1636	459.7816	421.9076	397.8105	375.8893	373.5111	369.2511	367.0072	377.1853	385.2725	390.892	404.1271	405.9615	399.1981	391.4832	373.8522	352.1178	329.4328	309.2455	290.9792	266.852	241.0652	215.5708	193.6197	174.1494	154.4772	139.4678	123.7265	108.437	94.16	83.0017	72.2708	62.9134	56.4659	47.4904	40.2023	33.9195	27.7595	23.9555	20.0963	16.1316	11.7483	7.5561	3.5816	1.909	0	0
496	531.9027	557.7259	562.7734	564.18	565.2808	528.4291	490.9446	449.8972	419.378	393.9833	372.4033	367.9554	360.4402	361.6203	367.1979	376.5129	385.4279	393.294	393.8925	394.2918	383.5345	370.126	344.5675	323.4835	307.9471	288.0251	263.7017	238.6775	214.0139	191.1969	172.7387	154.9354	138.7156	122.7642	109.5441	95.1321	84.1066	72.5941	64.3344	56.7986	49.6878	41.591	35.9538	29.6722	24.1042	21.7201	17.211	13.7867	8.8787	4.6987	2.89	0.6806	0
498	511.1454	541.4487	545.7858	550.0209	559.8429	510.2282	477.5899	437.9095	415.6723	384.7749	367.2034	363.1771	352.627	354.0692	361.2794	368.6004	378.9637	385.6988	390.0397	383.8252	374.3438	360.8224	340.5137	319.4035	301.226	280.4796	260.3034	235.5228	211.923	191.0694	171.5332	154.8107	138.0735	123.2524	110.2286	96.0771	84.5054	72.8894	65.7512	57.0922	50.5381	42.7898	37.4194	30.7831	25.3872	22.2589	18.692	14.6116	10.4485	5.8341	3.5449	1.3732	0
500	499.9053	522.0989	528.4544	535.5542	537.0548	515.6209	478.4264	437.5896	407.3087	382.7879	361.6001	354.458	353.2603	350.1119	349.0657	357.3028	368.409	377.2677	378.834	376.1641	365.9564	352.0098	332.0179	309.1802	296.4941	279.0234	255.514	235.253	211.2078	190.5244	171.2963	153.7904	138.227	126.0519	111.4003	99.1884	84.8982	74.3837	66.6644	57.3822	51.4693	44.2926	37.4967	31.998	26.6117	22.7286	19.0849	15.556	11.814	8.8303	4.211	2.0779	0
502	519.5475	502.2301	511.2181	520.6207	527.3783	501.7766	466.9061	429.6038	395.8319	375.7491	357.2497	348.9077	341.1757	339.6658	347.8715	348.3089	358.1084	364.5848	372.9167	366.6204	357.9019	344.5396	323.332	303.8277	288.8553	275.3219	251.7652	230.6672	208.7629	188.439	170.1316	152.0404	138.6593	122.9905	110.9776	98.7258	85.2596	75.8702	66.5171	57.6514	51.0282	45.9167	39.1917	34.3257	26.8976	23.329	20.0643	16.361	13.0486	9.5154	4.8866	3.0204	1.5411
504	483.9963	482.0149	494.261	505.3957	506.0005	476.2871	455.1599	417.0178	393.0234	368.7224	355.2511	337.7833	335.354	331.9334	338.2655	341.1496	348.4394	358.1645	361.5154	357.597	348.3678	334.0082	316.9154	297.5407	285.6733	269.7729	250.2709	227.7593	204.8751	186.1925	169.3042	151.7405	136.8344	124.161	110.6376	99.0404	85.6151	76.3169	66.3582	57.9171	49.4951	46.8834	40.6008	34.9668	28.6043	22.8183	21.2631	17.3563	13.6897	11.5406	6.6863	4.2069	3.1081
506	482.692	462.0149	477.5723	497.5125	490.9609	475.1697	448.1252	416.4718	389.6855	364.1252	339.8944	335.5534	326.6332	325.8337	328.6016	333.453	342.0876	348.6009	349.7156	344.3834	339.8675	325.8482	308.3602	293.2393	279.3957	263.8176	246.7964	224.517	200.1133	184.1417	167.0708	149.4625	136.6595	124.486	110.7517	99.1418	86.0661	76.3188	66.7671	58.2476	50.1088	46.428	40.8171	35.6283	30.4017	24.1097	22.2462	18.8113	16.0073	12.3659	8.6185	5.4191	4.7065
508	444.0468	442.1419	485.5981	481.3025	476.1528	468.0796	446.9011	407.7437	384.8084	353.8783	339.3432	324.4382	321.3391	314.0749	317.9294	325.8762	330.9922	337.1665	340.7813	341.0882	330.2359	319.0738	299.3112	287.7221	274.4045	260.9729	241.6577	222.4144	201.1179	181.2385	164.9991	148.3236	136.67	122.4034	110.7449	99.8114	87.5427	76.3965	67.2504	58.4581	50.7843	46.4059	41.7107	37.0921	31.8479	26.2259	20.9501	19.8688	16.636	13.1975	10.2088	6.661	6.3418
510	436.0253	468.4824	467.1573	464.683	460.9596	467.4591	428.2222	400.9081	370.2239	347.7729	331.633	324.6714	314.04	307.8454	310.5441	314.7279	324.6466	323.298	329.8052	326.5729	319.4981	309.9844	292.3067	279.6169	267.5333	255.1006	237.2718	218.0711	195.962	179.3365	162.5167	148.4574	133.2437	121.2032	109.8088	100.5399	86.983	76.4591	67.6354	58.5671	51.4629	45.39	42.3033	37.926	33.0227	26.8491	21.4115	19.7577	17.2457	14.8744	11.8151	8.2226	8.0104
512	427.6953	408.4324	448.2236	447.5101	445.3257	440.2094	425.5814	389.4187	371.6022	345.7931	324.5694	316.1235	305.6335	298.2067	300.5351	307.1719	311.179	315.5321	316.8879	314.039	314.0583	302.0216	284.7565	271.9645	260.3099	249.2666	230.2204	215.3154	191.4026	177.034	160.9338	146.2156	133.6884	120.1499	108.7432	99.8887	87.0326	76.4966	67.8159	58.6587	52.138	45.7044	43.0377	37.5563	33.7877	28.068	22.2668	19.3776	17.3752	15.6838	12.3974	9.7332	9.711
514	419.1169	442.5923	428.8642	429.8485	429.317	425.8349	411.9154	380.0107	358.8314	334.2907	320.0506	305.7994	300.2897	291.8586	290.5228	297.2067	303.3966	308.0007	309.7737	307.5537	302.7877	293.4427	282.2712	263.7313	254.6222	242.1319	230.527	210.3855	188.9753	174.3213	158.6814	143.3945	133.6575	119.0704	108.2182	99.3545	87.4768	77.3521	67.9862	59.4043	52.497	46.016	44.0865	39.232	33.8979	29.0547	23.4999	19.1045	18.6904	15.7993	13.4545	11.0865	11.0612
516	410.6138	403.6999	409.4044	412.1136	417.3053	411.4966	399.6409	378.0304	352.3856	326.4617	312.5145	296.3459	288.4348	280.8864	286.1357	290.0129	292.9792	299.1115	299.9786	299.8653	297.0333	286.0578	271.5032	258.9091	251.0085	239.1767	222.3189	205.2868	185.4884	171.4755	156.3456	140.8994	131.6991	119.3595	108.0113	98.6392	86.2186	78.658	68.1985	60.1992	52.2481	46.36	42.81	39.5261	34.1882	29.9249	24.7171	19.6607	18.2894	17.0428	14.5414	10.734	10.7095
518	402.1557	389.2216	389.7899	402.9545	402.9156	397.0937	390.8958	366.8106	343.7183	317.7485	304.8307	289.6599	282.1986	279.1614	275.1623	283.8986	285.2389	291.5662	293.0402	290.339	286.8433	278.621	265.9473	253.6621	241.7752	232.8883	219.797	201.4259	183.6838	166.3046	154.1082	139.9156	127.1901	116.3258	105.1	95.4838	86.0729	78.3524	68.4519	60.3853	52.0214	46.7363	41.7972	39.205	34.4815	31.0494	25.8028	20.042	16.9833	17.1222	15.3232	12.5504	12.5219
520	393.4105	315.2361	383.6945	386.5879	388.1234	382.2898	383.4035	350.5598	331.2342	313.9435	296.7262	286.2703	274.2393	272.0588	269.082	272.2911	274.3494	282.8116	282.8665	282.2401	276.9556	269.4425	258.3026	244.4059	237.9788	226.3643	211.605	196.1089	180.4629	164.1888	152.7834	137.3614	126.9399	115.3873	105.4547	96.8798	86.0286	79.0552	68.6934	60.2271	52.4537	47.1092	41.8957	38.9189	34.4663	30.0867	27.1976	19.4631	15.9283	17.4307	15.2224	12.9015	12.8721
522	384.354	312.975	360.2469	369.7688	372.1188	367.0622	368.8774	348.3947	323.8993	307.6776	289.3757	281.5348	273.7288	262.4448	264.4878	267.4928	266.1142	272.2487	274.384	271.6067	270.89	263.356	247.5037	241.0518	231.8044	222.9335	209.2721	192.5418	173.8608	162.7089	149.1636	134.0389	124.5574	113.8556	103.4023	94.6377	85.9966	76.0239	67.4626	60.0465	52.8792	46.8307	41.9833	39.2242	35.5429	31.0319	27.9021	21.1544	15.7539	16.9456	15.9637	14.2763	14.2438
524	375.0143	310.5875	368.1692	352.5277	354.912	351.4413	363.932	339.7537	320.0686	301.7742	283.186	275.1732	267.8868	257.3417	256.1797	253.4742	259.0056	262.5356	265.8628	263.3105	263.0209	251.7543	244.2725	231.346	225.1464	216.4675	205.3734	186.6517	172.1012	159.3482	146.0951	132.9322	123.5638	112.6329	102.6082	92.5011	85.6221	76.7458	68.6089	59.8473	52.9744	46.2089	42.0627	38.8243	35.1768	31.4269	27.6803	23.794	16.1103	15.3582	16.3495	14.3184	14.2858
526	365.6445	308.2856	352.5242	335.0981	337.5186	346.4065	349.1137	333.567	309.3952	291.462	278.1571	266.8278	259.1736	252.2094	249.1304	247.1962	251.8404	255.4566	259.5292	257.1855	252.8421	248.5776	236.4287	228.0958	217.4483	212.4137	198.6861	185.144	167.3193	156.4534	143.3283	129.7768	119.8108	110.7217	101.2838	93.1701	83.0162	75.0226	67.4827	59.6699	52.4338	45.5933	42.1623	38.561	35.8508	31.9737	28.0319	24.425	16.3449	13.9325	15.7361	14.2764	14.2439
528	356.2171	306.0573	358.2382	317.4382	332.224	334.0078	334.1209	322.2284	303.3928	290.6212	269.969	260.3404	249.6251	243.2898	240.3782	245.745	243.102	251.4155	251.7195	252.9173	248.9948	240.7342	230.5018	221.6123	215.1671	205.8436	193.4062	181.5711	166.3871	151.8478	141.3139	127.8021	119.0885	108.8392	99.4316	90.1138	82.4245	75.7214	65.9225	59.8159	51.9017	45.7559	42.0409	38.307	34.9621	31.6879	29.2251	25.0926	18.6423	12.4221	14.7542	14.3897	14.3569
530	346.4715	303.6867	298.3481	311.6171	318.0434	321.2353	318.7022	314.9724	293.2823	277.1464	262.632	255.6901	244.3596	236.9833	234.5383	232.6071	237.611	242.6258	243.356	242.5666	236.8391	233.6497	222.2345	215.7569	206.831	202.4115	189.4586	175.4517	162.2398	147.4758	138.9833	125.5312	115.5846	106.6737	97.8819	88.7451	81.4418	74.0704	66.9873	59.2683	51.3419	45.9093	41.418	38.036	34.687	31.709	28.2983	24.8974	20.4971	11.9708	12.9741	15.0198	14.9857
532	336.4604	301.2198	243.4835	307.7849	303.51	306.222	302.9068	308.7608	289.5118	275.2644	258.9144	245.8943	238.7537	228.699	227.3469	228.4017	229.7287	233.5148	231.1264	232.7902	231.2682	225.0507	215.731	209.2019	202.1435	196.4594	188.0369	172.4564	158.1037	148.5202	135.8848	123.4131	114.9103	104.8439	95.8526	87.1789	80.3142	71.2103	65.5009	58.2313	50.7619	45.5705	40.7747	37.7536	34.6261	31.4769	29.4723	25.4324	21.1981	13.047	11.4167	14.3662	14.3335
534	326.1294	298.6092	251.5615	308.5588	288.5745	288.8634	286.685	299.2243	283.8453	271.333	250.7356	239.95	228.9008	223.028	223.4479	221.6342	221.5002	224.5384	227.99	227.6817	223.9437	217.8005	208.6408	202.9997	197.9966	192.1079	181.3707	168.4981	155.2954	143.7689	131.8268	120.4692	111.6161	101.027	93.9353	85.5557	79.5603	71.8335	64.6568	58.5044	50.1539	44.9631	40.5182	37.4538	34.1956	31.5422	28.862	26.0442	21.9182	15.697	9.5425	13.4877	13.457
536	315.6447	296.0094	259.9038	299.3263	273.382	271.201	282.1235	286.3108	271.4245	259.576	246.8275	235.1698	228.5915	219.8474	218.6822	213.8878	215.2924	219.2082	219.6336	219.2077	216.6779	212.6883	202.9146	197.62	194.2	184.2568	175.3923	164.1738	152.1591	139.9594	129.6533	118.6161	109.833	99.8727	93.3592	84.7747	77.5096	70.3911	63.8877	57.9119	50.3706	44.352	40.2652	37.0867	33.7631	31.8773	29.2107	25.6724	21.6299	17.3614	8.6058	12.1103	12.0827
538	304.9847	269.5945	268.5195	287.0639	257.9052	271.9766	270.5507	273.1634	272.5415	247.7743	238.3365	228.3576	220.2517	213.2804	210.743	207.2191	208.4764	213.6637	215.1595	214.7435	212.3411	203.8247	201.1769	191.9888	185.876	181.897	171.4808	160.3326	148.0732	137.47	126.8373	115.5955	107.1556	99.274	91.9633	84.3077	75.9996	70.6434	63.708	56.6658	50.6469	43.7352	39.98	36.6835	33.3271	29.8545	29.0636	25.8902	22.3364	19.6193	10.3464	8.5708	8.5513
540	293.9785	278.8483	277.2767	275.1535	264.7813	259.163	258.6229	259.6263	264.1461	246.4995	234.5384	224.6565	212.618	205.7704	202.4008	201.6547	203.2402	207.4345	206.5353	205.9891	205.4989	201.8945	192.3599	186.5996	182.4551	179.1094	168.4452	156.5293	143.7898	133.1759	122.8366	114.3807	104.3707	95.9038	88.9563	82.9823	74.518	67.4501	60.6693	55.4671	49.4374	43.0896	39.6052	36.2589	32.8699	29.3786	28.1474	25.8401	22.8421	19.6923	12.6373	6.5936	6.5787
542	283.2987	272.4938	256.7009	242.638	265.8483	246.5591	245.8727	246.2835	256.332	238.742	226.3681	218.053	209.3579	197.3654	194.8803	198.9118	198.9396	203.2785	200.8443	200.8351	199.1297	196.2319	189.3326	182.3142	178.5126	171.9446	164.0658	152.0183	142.4138	131.1794	121.1167	112.4595	103.6345	95.4903	88.4353	80.5269	72.8607	67.6335	61.8542	55.1885	50.1033	42.6013	39.3006	35.9135	32.4184	28.9496	27.8582	25.4399	22.6923	19.7776	15.6036	5.4499	5.4375
544	283.6827	248.0526	211.6698	180.4393	258.1335	233.5065	231.6049	232.4735	246.7483	239.34	222.6337	212.8132	204.6158	197.4524	193.06	191.5321	189.9788	195.6139	193.7806	193.9249	193.2665	188.8471	180.8084	174.6783	173.4533	167.5539	160.6469	150.2266	137.1744	129.6252	119.1253	109.2774	101.1626	94.4095	85.2545	79.3015	71.9838	66.7686	60.6405	54.5963	48.4765	43.6292	38.9708	35.5431	31.8412	28.4961	25.9255	24.9573	23.3863	19.8362	17.287	7.6374	7.62
546	308.2204	262.7939	217.7312	192.1963	258.4754	219.8858	216.741	230.0668	235.4927	227.366	214.5717	208.2972	196.4304	194.309	185.1664	183.9638	188.3826	189.7431	190.5786	189.2154	188.9604	186.3294	178.9988	172.1989	168.3782	165.3209	155.0333	146.1251	134.0888	125.6685	115.3173	105.483	99.2524	91.8805	84.2376	76.7734	70.9786	65.7079	59.0509	54.1362	48.4724	42.6891	38.5946	35.0291	31.2175	28.0026	24.9456	25.5467	22.7445	20.2293	17.1457	9.6474	9.6254
548	309.1567	261.7491	216.4815	204.1096	253.5674	205.7275	221.7137	220.2598	223.7394	223.2297	206.4379	201.1693	192.8576	183.3986	182.1502	179.5592	183.9945	183.1995	179.9487	182.7334	182.2633	178.3024	172.8866	168.1938	164.9259	157.7602	151.5389	142.5503	130.6921	121.0471	112.7749	103.4995	96.9583	88.5367	82.589	75.6369	70.7165	63.9283	57.6966	53.106	47.009	42.38	38.1734	34.4194	30.7331	27.4706	24.7975	25.4317	22.1401	19.7126	17.3069	12.0168	11.9894
550	295.2013	260.5906	222.3841	216.2818	238.8785	219.2131	211.2739	210.1412	211.6295	215.4139	203.2159	192.3372	188.1582	182.0555	175.0246	177.9609	175.1237	179.6618	177.9594	176.6356	176.2935	172.8009	165.5652	160.3316	157.7489	156.2154	147.3414	136.9974	126.7634	118.1009	110.4423	99.94	94.0918	86.8684	78.0575	73.5253	67.2777	62.3703	57.0438	51.8972	47.0475	42.0432	36.7973	33.7829	30.2263	26.9108	24.6375	23.7689	22.1032	19.9537	17.8577	14.4164	14.3836
552	276.97	260.0593	236.4024	229.3663	222.8284	208.4287	201.0872	199.3473	199.7318	202.4212	198.6099	194.6463	179.3018	179.3123	170.4319	169.4184	170.1285	171.3172	170.4639	172.3921	170.3222	167.5055	160.4712	157.5309	154.0096	150.5295	143.9922	135.2855	124.9492	115.4864	108.1032	97.9724	93.0437	84.9561	78.6727	71.9429	65.1666	60.7254	55.7354	51.2309	45.7511	41.0621	37.0217	33.2126	29.7778	26.3995	24.5344	22.8313	22.1306	20.0277	16.915	14.7762	14.7426
554	288.4337	259.3884	236.585	216.6814	199.2443	214.2785	190.5072	187.1982	187.3942	198.4256	192.9581	187.3343	177.0667	169.7204	166.6083	166.6583	163.5344	165.1926	165.0164	165.0891	166.1537	161.8661	154.4795	150.8916	150.8896	145.1543	138.3036	128.0014	121.0477	111.3438	103.6534	96.7819	89.422	82.0696	75.6213	71.0419	65.1608	59.8208	54.8361	49.3128	44.5575	40.3231	37.0384	32.6093	29.2963	25.8603	24.4166	22.2671	21.42	19.5847	18.1337	15.8321	15.796
556	290.3383	245.229	191.3942	145.6304	106.5037	212.53	179.6019	174.6812	182.7234	188.7615	183.0127	182.5635	169.4219	165.9002	157.7296	162.117	160.5512	164.2551	159.8668	160.3692	156.8213	155.9408	150.3926	146.2739	144.505	140.9139	135.3375	127.3461	117.1785	109.425	101.9553	92.5945	87.3094	81.6017	75.67	70.0771	64.8092	58.4227	54.2432	48.9365	45.096	40.6042	36.2452	32.7653	28.7975	25.7665	24.1676	21.6837	21.1364	19.9781	17.5898	15.7757	15.7398
558	282.866	269.9032	204.9628	149.9082	123.3526	209.2838	168.3576	169.2814	174.1589	178.7923	182.8947	174.4782	169.2262	156.1965	155.5466	153.6259	156.7062	153.8131	157.7244	155.8093	152.7727	150.7141	146.5283	143.6642	140.0801	137.0187	132.0569	122.9626	113.375	106.8762	98.901	91.017	84.9378	78.2152	73.3698	67.2392	63.6235	57.622	53.1216	46.9703	42.6802	39.5292	36.2883	31.946	28.2806	25.6673	23.6535	21.0802	19.3309	19.5835	17.7009	15.1269	15.0925
560	258.3568	267.0967	201.8359	146.4613	140.703	198.7052	161.9182	160.4582	165.2582	168.445	169.8751	167.3082	163.6877	154.1054	150.8617	149.7062	149.5594	152.5363	150.1592	151.5678	149.0506	146.5864	141.9099	136.5769	136.0916	135.438	127.4803	121.0564	111.3139	103.5754	96.4771	87.3538	82.6038	77.3485	71.333	65.3182	60.4471	56.1217	52.3945	46.4248	41.6075	39.8762	35.3714	31.8473	27.7344	25.2981	23.1124	20.4482	17.6078	19.3056	17.3519	16.1133	16.0765
562	282.5995	264.0355	198.5131	154.2539	158.5513	196.6566	165.6386	151.2972	155.4074	157.714	163.2679	162.5415	155.7053	145.5736	148.261	145.1622	142.8486	143.2731	145.3845	146.1467	144.7845	140.057	138.6089	132.8835	129.5757	128.729	122.1482	116.4005	107.2974	98.9837	93.4573	85.4528	81.0575	75.0663	69.1685	64.0126	60.5008	55.2718	50.0193	45.9021	41.2892	38.2251	34.0513	31.0785	27.1577	24.7756	22.4956	19.7869	17.4754	18.4783	17.0198	15.0458	15.0115
564	251.4142	248.9372	195.0046	173.8336	176.907	178.2662	169.9054	141.8079	144.592	146.6094	164.9206	157.3197	153.2816	140.7048	141.7731	142.3562	138.9282	141.7701	140.2544	138.1172	139.1161	138.3359	134.0505	130.6358	128.0488	122.1781	119.437	111.0917	102.0159	97.1095	87.6944	81.909	78.3857	72.4655	68.3488	63.7322	56.9736	53.4467	48.5907	44.5902	39.6676	37.7718	34.2514	31.4876	28.5337	24.2267	21.8506	19.3544	17.3315	17.3161	16.8937	15.4699	15.4347
566	246.8045	236.2179	191.4283	176.2634	162.9452	150.4213	167.0176	132.0726	133.4949	150.5805	156.3578	148.3866	143.307	140.5872	136.8913	131.674	131.2031	135.9253	136.7755	136.4528	131.9942	133.1179	127.2424	124.6804	122.1225	120.7613	115.3333	108.0748	100.1868	93.3371	88.4961	80.3825	76.5234	70.5882	65.0152	60.5173	56.4614	51.8951	47.3187	41.7412	39.8878	36.1647	32.9635	29.7031	27.3356	23.6657	21.3201	19.0431	17.1864	15.6326	15.9626	15.0047	14.9706
568	221.807	246.7757	220.7927	169.1087	124.9429	86.5297	164.9403	122.0705	139.757	140.8843	147.5652	147.831	137.8324	133.6854	131.2018	127.3905	129.9199	130.1075	131.241	132.9834	129.1792	127.3608	123.0946	119.3914	119.1071	113.777	112.0022	104.129	98.0604	91.0826	84.8954	78.6579	74.6428	67.7583	64.0836	58.7643	55.987	49.8017	45.996	42.2647	38.4479	35.4019	32.4257	29.4663	26.3971	23.0911	21.0404	18.725	17.0393	15.2517	16.4357	14.3488	14.3161
570	214.8026	238.3677	205.2829	158.7315	118.9108	99.3091	164.8438	130.5899	129.9818	130.8341	138.4409	141.7951	136.6354	127.2701	126.2413	125.5664	123.9546	126.3764	122.8916	123.3705	125.2547	123.8531	119.0226	115.3868	115.1246	112.8684	108.6781	100.2898	94.5502	88.291	81.8843	76.1615	71.6645	66.8736	60.2437	56.609	52.6548	49.1152	44.1825	40.5778	36.3432	33.5869	31.3326	29.1888	26.9761	24.1202	20.7421	18.5897	16.8645	14.8517	15.5435	14.3273	14.2947
572	207.9888	215.3519	209.5452	157.1081	116.9407	112.6968	156.8737	135.1581	120.1194	121.3606	129.2633	137.8641	129.959	121.4516	122.8657	120.3187	120.8565	120.3084	120.216	121.5501	118.8379	121.3994	115.3407	112.7948	111.0561	109.3907	104.5123	97.7444	91.9417	85.4527	80.5513	73.3492	69.1967	65.0171	60.0123	55.4116	50.6068	47.7442	44.8715	40.588	36.7559	33.8506	30.7784	28.9007	25.5359	23.7317	20.4687	18.4811	16.6813	14.4636	15.262	14.9249	14.8909
574	212.5585	191.6118	201.4012	155.3372	123.3187	126.504	156.1852	136.2708	109.8617	112.1844	119.7067	131.9691	124.8938	122.186	120.5256	118.3709	117.3197	117.3457	114.9645	115.9418	114.1167	112.4882	110.9281	108.3727	107.6389	106.1889	101.2277	95.2428	88.8088	80.7894	77.3092	71.5746	66.9093	62.4353	58.2652	54.3785	48.1608	45.9536	43.0921	38.7513	36.5951	34.0977	30.7227	27.4234	25.6985	23.3246	20.1741	18.3265	16.4821	14.0538	11.5726	13.9756	13.9438
576	197.342	203.4105	194.3787	153.4165	138.4882	140.7309	145.0376	134.9438	99.2088	102.6451	120.6336	125.6742	121.8356	118.4121	117.1978	114.9803	115.7986	112.9577	113.8755	114.7793	113.9499	110.6202	108.3449	105.7863	104.2503	101.857	97.8587	92.814	85.5618	80.8457	75.6703	70.5283	64.5156	61.4107	55.618	52.6756	48.7894	44.7786	42.0938	38.0505	33.9459	31.7058	29.2268	27.3567	24.9878	22.2293	19.858	18.1401	16.0926	13.6221	11.4527	13.5452	13.5143
578	212.4586	172.716	185.138	151.3464	140.1798	129.6521	122.6409	134.6296	88.1631	110.0026	112.4626	119.1056	116.1574	111.3635	111.2429	110.998	109.3095	109.8706	109.4186	107.5581	107.3252	105.5315	104.1618	102.7079	99.4924	99.9237	93.6279	90.6778	82.2677	79.2028	73.5393	67.6745	63.0373	59.4684	54.7477	52.0237	47.4073	43.9526	41.2271	37.2051	33.29	30.9963	28.3073	26.8863	23.8032	22.9028	19.8576	17.9373	15.6811	13.2437	11.3224	12.6274	12.5986
580	186.8657	152.2262	168.2079	156.0711	121.755	91.6962	67.0951	134.4275	101.8549	101.9203	103.9754	112.2661	111.7144	107.1339	107.2557	105.3939	105.1534	106.1557	105.4562	105.1698	104.3752	104.3881	99.9519	100.0249	99.6714	93.4185	92.7395	84.6943	81.7018	74.4486	71.9858	65.5591	60.8171	57.3177	52.8214	49.9487	44.8162	42.1662	38.2895	36.3952	33.0857	29.641	28.0493	26.0001	24.2851	22.127	19.6857	17.7186	15.2861	12.8842	11.1819	10.8525	10.8278
582	156.4322	142.2017	143.9047	146.7316	116.5079	89.9546	77.7551	129.2659	97.489	93.5634	96.1835	105.1871	112.5919	103.7105	101.3007	101.8221	105.4805	101.446	102.6025	102.3475	101.472	100.4724	98.9614	94.0674	93.8781	91.5074	87.7193	84.491	79.2698	72.9735	67.2671	64.7342	60.4679	55.595	52.5508	47.4628	44.7254	41.1605	37.895	34.6406	32.4228	28.8347	27.0596	26.3716	22.8673	21.632	18.8747	17.489	14.9525	12.5103	11.0345	9.5699	9.5481
584	170.8504	146.2674	155.9962	143.7269	118.5803	91.5837	88.7344	125.3329	106.2998	84.8995	89.0972	97.8334	105.7598	101.6102	99.6852	98.5758	98.8524	101.2184	98.6774	96.0722	97.6535	95.9848	94.2529	90.8362	90.9718	90.1282	86.608	81.8517	73.7685	69.31	65.7959	61.9683	58.3866	55.1071	50.2621	46.6885	42.4338	40.2038	37.9437	34.2762	30.3718	28.5755	26.9776	25.2096	22.6624	20.9773	19.3657	17.0995	14.6005	12.3757	10.8768	8.2771	7.0269
586	158.9674	119.8509	131.3619	137.5965	120.6404	98.35	100.0181	130.988	106.5835	75.9173	81.7361	96.9452	100.1472	101.7889	95.8083	95.2109	96.1476	95.7139	96.6646	93.976	94.1802	92.0537	89.4414	89.2361	87.1953	88.8823	83.5952	78.6036	73.2365	68.4231	64.1897	59.6517	55.109	53.2326	49.758	46.2547	42.1704	39.1942	35.4592	33.2927	29.6538	28.0943	25.4849	23.8056	21.8716	19.7557	19.1753	17.008	14.2279	12.2288	10.6601	6.9384	4.7484
588	124.7588	145.8411	125.5263	135.4379	122.688	110.5001	111.6028	115.8565	102.5373	66.6231	86.5626	90.461	94.3036	94.7826	93.4457	93.2132	90.1605	93.1397	92.9241	89.7732	91.8169	89.6481	86.8479	85.6476	83.7116	82.8844	79.9369	78.0035	72.5405	65.5832	63.1573	57.8481	54.5568	51.0257	46.6353	42.995	40.2538	37.495	34.7074	31.0868	29.827	27.8011	24.965	23.4386	22.069	19.6705	18.1458	16.6278	13.835	12.046	10.4065	5.5545	0.1618
590	119.6533	118.8113	131.8271	133.026	124.7427	112.369	103.4612	98.2685	103.2075	76.8384	80.1527	83.7473	88.2469	92.2832	86.2631	90.7765	88.3094	88.9903	88.6864	87.69	89.2351	86.0454	84.3687	84.7104	82.1307	80.5152	77.5967	71.244	68.7442	64.2423	60.0303	54.9309	53.1538	48.7115	45.2169	42.0371	38.1351	36.3807	33.9891	31.6732	27.7464	26.6931	23.9683	22.591	21.3036	19.744	17.9778	16.1367	13.4241	11.8041	9.5956	4.1268	0
592	140.2559	118.7169	135.8306	135.5629	129.8601	102.358	80.1493	62.0798	97.3066	82.5086	73.7902	77.487	82.275	85.4994	87.0878	85.684	87.7741	88.4376	87.4714	85.2315	84.8658	84.1967	82.5359	80.0525	79.3148	78.3565	75.2521	73.5132	67.4703	62.6069	58.9342	52.6586	50.7883	46.9447	45.5336	41.7339	38.4551	35.7879	33.2625	29.5577	27.4877	25.1267	23.8495	21.6956	21.1577	18.9584	17.5325	15.2771	13.7028	11.5917	8.2335	3.8977	0
594	128.6274	105.7634	119.1317	119.94	144.4992	108.6131	78.8227	71.0753	109.7192	77.8341	67.1528	71.3638	76.0361	84.0341	82.6187	81.815	84.2926	83.1992	86.1316	86.3123	82.8683	81.0778	78.4389	76.9835	76.4138	73.5519	72.906	69.1073	64.802	60.6302	55.5153	51.4546	50.3765	46.5136	43.5281	40.8571	36.8508	34.3542	32.0997	28.97	27.6881	26.4225	23.0064	21.8133	20.3083	18.3684	17.3243	15.4898	14.3605	11.3639	7.3691	0	0
596	113.0727	109.0705	109.9115	123.6695	136.7396	100.1066	86.2454	80.3941	101.7326	84.3835	60.267	65.009	75.7467	80.8734	81.0368	80.9456	78.0616	82.6637	82.1757	80.2426	81.0366	78.6339	76.1662	75.7182	73.3644	74.3452	70.9582	65.4178	62.5747	58.9483	55.7322	50.6927	47.4764	44.8963	42.4287	38.0745	35.8906	33.9099	31.1169	29.2222	26.8614	23.8906	22.1788	21.1858	19.3284	17.6372	16.4966	14.3123	13.8414	11.1256	7.9015	0	0
598	105.9151	109.733	105.431	116.01	127.1342	105.9782	96.2268	90.0478	106.3505	79.6956	53.1232	65.9001	72.3901	77.5808	77.9337	78.6135	74.3981	78.533	77.0204	75.7447	76.7975	77.2661	71.6447	71.4961	71.4804	70.9288	69.2829	64.5632	60.2819	55.7115	52.6758	48.9738	46.9993	44.0937	40.7397	38.3398	35.9455	33.3835	29.7906	27.4171	25.407	23.095	22.1965	20.8718	19.114	17.2733	16.6166	14.9778	12.9894	11.4246	0	0	0
600	120.0546	98.4931	93.0153	103.813	131.1954	116.9664	106.5218	100.0066	97.4523	77.3265	55.1076	62.3868	68.8662	74.1199	79.3398	73.3202	76.0743	75.1974	77.2708	74.8517	75.649	73.1545	71.8435	70.3863	69.5951	68.9608	66.8047	63.6389	58.8791	55.0532	52.2551	49.2628	46.426	42.8938	39.6873	36.6146	33.4639	31.0921	29.6181	27.9479	25.2754	23.8521	20.9683	19.7268	18.7784	16.7543	16.0772	14.8359	13.3984	12.2004	0	0	0
