Description	Scan series EEM_1.prn through EEM_53.prn																																																				
EEM type	"Dilution- & Scatter-corrected, Calibrated Data (ppb QSE)"																																																				
Scan date	3/5/2013 16:06																																																				
Excitation	240-500nm by 5nm																																																				
Emission	290-600nm by 2nm																																																				
Calibration	Michael_Fluoromax4_April08 (07-Apr-2008)																																																				
Slit settings	"5nm Excitation, 5nm Emission"																																																				
Dilution	29																																																				
Row 1	Excitation(nm)																																																				
Col 1	Emission(nm)																																																				
Data	Fluorescence(ppb QSE)																																																				
																																																					
	240	245	250	255	260	265	270	275	280	285	290	295	300	305	310	315	320	325	330	335	340	345	350	355	360	365	370	375	380	385	390	395	400	405	410	415	420	425	430	435	440	445	450	455	460	465	470	475	480	485	490	495	500
290	44.5311	40.1217	23.1286	22.1785	21.3167	20.4295	19.9936	20.1685	13.6131	6.9704	0	0	0	0	0	0	0	0	0	0	0	0	0	0	0	0	0	0	0	0	0	0	0	0	0	0	0	0	0	0	0	0	0	0	0	0	0	0	0	0	0	0	0
292	28.9695	25.6691	19.2123	29.809	28.3654	26.9312	26.8372	28.94	5.1557	2.2632	0	0	0	0	0	0	0	0	0	0	0	0	0	0	0	0	0	0	0	0	0	0	0	0	0	0	0	0	0	0	0	0	0	0	0	0	0	0	0	0	0	0	0
294	45.0725	42.1094	23.7807	37.2724	35.2592	34.7804	35.6428	37.5215	21.7878	1.4922	0	0	0	0	0	0	0	0	0	0	0	0	0	0	0	0	0	0	0	0	0	0	0	0	0	0	0	0	0	0	0	0	0	0	0	0	0	0	0	0	0	0	0
296	62.9713	20.6492	35.9287	44.5082	44.3344	43.8714	49.1305	45.8508	37.1198	0.7369	0	0	0	0	0	0	0	0	0	0	0	0	0	0	0	0	0	0	0	0	0	0	0	0	0	0	0	0	0	0	0	0	0	0	0	0	0	0	0	0	0	0	0
298	105.7517	55.7921	54.4538	60.817	53.8927	52.6584	62.1993	53.8915	40.8499	0	0	0	0	0	0	0	0	0	0	0	0	0	0	0	0	0	0	0	0	0	0	0	0	0	0	0	0	0	0	0	0	0	0	0	0	0	0	0	0	0	0	0	0
300	70.6561	67.8764	64.0521	66.1244	63.1721	66.2769	72.504	61.6932	44.4616	0.2584	0	0	0	0	0	0	0	0	0	0	0	0	0	0	0	0	0	0	0	0	0	0	0	0	0	0	0	0	0	0	0	0	0	0	0	0	0	0	0	0	0	0	0
302	102.2264	67.4371	60.5442	71.9987	73.3396	80.7877	81.4363	73.5179	48.7296	11.8911	0	0	0	0	0	0	0	0	0	0	0	0	0	0	0	0	0	0	0	0	0	0	0	0	0	0	0	0	0	0	0	0	0	0	0	0	0	0	0	0	0	0	0
304	107.6953	91.798	64.1848	72.9739	72.3807	95.3639	90.404	85.3929	53.0127	20.1737	0	0	0	0	0	0	0	0	0	0	0	0	0	0	0	0	0	0	0	0	0	0	0	0	0	0	0	0	0	0	0	0	0	0	0	0	0	0	0	0	0	0	0
306	102.4453	86.2221	79.7832	80.1034	88.644	109.9507	102.599	93.4628	57.2821	28.4747	0	0	0	0	0	0	0	0	0	0	0	0	0	0	0	0	0	0	0	0	0	0	0	0	0	0	0	0	0	0	0	0	0	0	0	0	0	0	0	0	0	0	0
308	125.6745	110.2003	58.3085	85.053	91.2084	124.5262	114.7766	97.6947	68.0292	36.7817	0	0	0	0	0	0	0	0	0	0	0	0	0	0	0	0	0	0	0	0	0	0	0	0	0	0	0	0	0	0	0	0	0	0	0	0	0	0	0	0	0	0	0
310	134.4988	96.9789	92.2237	93.4892	106.4774	127.2263	126.9822	101.9332	78.7995	45.1048	9.4393	0	0	0	0	0	0	0	0	0	0	0	0	0	0	0	0	0	0	0	0	0	0	0	0	0	0	0	0	0	0	0	0	0	0	0	0	0	0	0	0	0	0
312	126.3453	134.1357	109.226	89.0788	111.702	130.5447	138.3727	111.9465	87.756	53.1217	18.784	0	0	0	0	0	0	0	0	0	0	0	0	0	0	0	0	0	0	0	0	0	0	0	0	0	0	0	0	0	0	0	0	0	0	0	0	0	0	0	0	0	0
314	155.3503	115.6323	100.7963	102.5663	109.7316	134.3065	149.643	121.8534	95.3277	58.5759	28.034	0	0	0	0	0	0	0	0	0	0	0	0	0	0	0	0	0	0	0	0	0	0	0	0	0	0	0	0	0	0	0	0	0	0	0	0	0	0	0	0	0	0
316	125.8035	135.9417	143.7486	133.3766	123.3356	127.6411	156.1939	131.2154	102.4743	63.7574	37.0656	7.7066	0	0	0	0	0	0	0	0	0	0	0	0	0	0	0	0	0	0	0	0	0	0	0	0	0	0	0	0	0	0	0	0	0	0	0	0	0	0	0	0	0
318	151.1717	139.1697	139.0194	125.0451	124.592	141.6549	154.2303	139.9269	106.736	70.1938	45.7859	15.2306	0	0	0	0	0	0	0	0	0	0	0	0	0	0	0	0	0	0	0	0	0	0	0	0	0	0	0	0	0	0	0	0	0	0	0	0	0	0	0	0	0
320	178.4398	132.9307	123.6966	123.9884	125.5143	142.3645	152.8703	148.3905	110.8633	78.0221	48.7308	22.5717	0	0	0	0	0	0	0	0	0	0	0	0	0	0	0	0	0	0	0	0	0	0	0	0	0	0	0	0	0	0	0	0	0	0	0	0	0	0	0	0	0
322	175.947	141.7697	132.7904	137.0676	125.1744	125.947	156.0915	150.9839	114.3213	85.2407	51.3492	29.5917	6.963	0	0	0	0	0	0	0	0	0	0	0	0	0	0	0	0	0	0	0	0	0	0	0	0	0	0	0	0	0	0	0	0	0	0	0	0	0	0	0	0
324	153.6377	177.2716	156.8495	155.376	129.3729	139.1205	140.7205	147.5958	117.5944	87.0127	55.6378	36.3589	13.6884	0	0	0	0	0	0	0	0	0	0	0	0	0	0	0	0	0	0	0	0	0	0	0	0	0	0	0	0	0	0	0	0	0	0	0	0	0	0	0	0
326	189.6976	159.3854	148.9083	145.024	135.3539	143.2129	147.3152	141.3286	120.6287	88.6305	61.4764	41.095	20.167	0	0	0	0	0	0	0	0	0	0	0	0	0	0	0	0	0	0	0	0	0	0	0	0	0	0	0	0	0	0	0	0	0	0	0	0	0	0	0	0
328	208.9912	151.6317	145.6838	128.1002	147.6568	145.9097	150.8848	142.1665	130.0721	90.0897	67.0352	45.6136	26.3895	7.1671	0	0	0	0	0	0	0	0	0	0	0	0	0	0	0	0	0	0	0	0	0	0	0	0	0	0	0	0	0	0	0	0	0	0	0	0	0	0	0
330	178.6644	193.0719	157.7344	153.5183	145.0197	147.9856	153.5321	142.9565	127.5074	91.4285	70.7163	50.4948	32.3614	14.063	0	0	0	0	0	0	0	0	0	0	0	0	0	0	0	0	0	0	0	0	0	0	0	0	0	0	0	0	0	0	0	0	0	0	0	0	0	0	0
332	184.0791	167.3048	179.4099	149.8839	141.3482	139.5635	144.6321	143.9704	130.2165	91.6514	73.407	55.1085	39.2067	20.4656	0	0	0	0	0	0	0	0	0	0	0	0	0	0	0	0	0	0	0	0	0	0	0	0	0	0	0	0	0	0	0	0	0	0	0	0	0	0	0
334	213.2718	182.7017	166.4278	128.1362	145.6613	142.1842	136.2734	134.4534	132.9132	100.7803	75.7986	59.3431	45.5705	26.4479	7.712	0	0	0	0	0	0	0	0	0	0	0	0	0	0	0	0	0	0	0	0	0	0	0	0	0	0	0	0	0	0	0	0	0	0	0	0	0	0
336	186.5866	209.2765	175.7334	157.3407	139.6873	150.3255	137.4869	137.6542	129.3183	108.6799	77.9706	64.668	51.024	32.0418	14.9501	0	0	0	0	0	0	0	0	0	0	0	0	0	0	0	0	0	0	0	0	0	0	0	0	0	0	0	0	0	0	0	0	0	0	0	0	0	0
338	189.1044	176.1476	163.0106	157.6826	143.9862	142.9824	136.9405	133.856	129.047	110.511	79.9365	69.6088	55.6331	39.3365	21.7362	2.4078	0	0	0	0	0	0	0	0	0	0	0	0	0	0	0	0	0	0	0	0	0	0	0	0	0	0	0	0	0	0	0	0	0	0	0	0	0
340	192.2037	185.8798	165.7355	159.2384	147.6142	143.2838	140.2251	136.6556	124.7291	110.5327	88.091	74.1063	59.8471	46.1046	28.0618	12.4377	0	0	0	0	0	0	0	0	0	0	0	0	0	0	0	0	0	0	0	0	0	0	0	0	0	0	0	0	0	0	0	0	0	0	0	0	0
342	231.625	179.266	171.9421	165.0553	146.8097	145.3376	146.6387	138.8821	127.6679	114.8615	95.8258	78.5877	65.9559	52.1317	34.1114	21.9263	6.1243	0	0	0	0	0	0	0	0	0	0	0	0	0	0	0	0	0	0	0	0	0	0	0	0	0	0	0	0	0	0	0	0	0	0	0	0
344	229.0615	174.0156	177.4058	166.1633	156.0072	147.3738	141.9538	133.0741	131.3209	120.7112	99.3931	82.6961	71.623	57.2577	44.4691	30.86	14.36	2.2516	0	0	0	0	0	0	0	0	0	0	0	0	0	0	0	0	0	0	0	0	0	0	0	0	0	0	0	0	0	0	0	0	0	0	0
346	217.5851	200.7037	196.7514	161.994	158.053	144.7588	146.9614	140.1194	133.9257	124.3863	109.0299	88.1564	77.05	62.1593	54.311	39.3406	22.8934	8.2217	0	0	0	0	0	0	0	0	0	0	0	0	0	0	0	0	0	0	0	0	0	0	0	0	0	0	0	0	0	0	0	0	0	0	0
348	240.1466	213.1423	201.318	173.9614	167.7522	149.7097	151.133	144.7335	136.9426	128.5381	115.6759	97.2394	82.2946	71.3335	62.8638	47.4404	31.0235	17.1093	4.9084	0	0	0	0	0	0	0	0	0	0	0	0	0	0	0	0	0	0	0	0	0	0	0	0	0	0	0	0	0	0	0	0	0	0
350	243.0168	242.1147	199.3213	166.9273	158.2238	155.2323	152.8825	144.394	140.1857	128.0145	115.8331	106.9281	87.1731	79.9641	70.0768	54.7109	38.7127	22.6822	11.9099	1.9007	0	0	0	0	0	0	0	0	0	0	0	0	0	0	0	0	0	0	0	0	0	0	0	0	0	0	0	0	0	0	0	0	0
352	249.5222	227.1237	204.2661	177.2826	169.3466	158.2367	161.2651	151.2502	145.0505	138.0785	128.9194	110.008	102.2952	88.0678	76.8448	61.5513	45.9692	30.4013	19.7947	7.8946	0	0	0	0	0	0	0	0	0	0	0	0	0	0	0	0	0	0	0	0	0	0	0	0	0	0	0	0	0	0	0	0	0
354	252.5959	243.5618	208.5329	185.9548	176.0404	169.2113	166.329	154.0448	152.5335	141.4676	131.1888	122.2003	107.3164	95.6296	82.8063	67.9516	55.1166	41.6788	26.6546	13.6444	0.6536	0	0	0	0	0	0	0	0	0	0	0	0	0	0	0	0	0	0	0	0	0	0	0	0	0	0	0	0	0	0	0	0
356	260.3377	258.1095	227.6629	194.4939	185.1475	167.1715	168.2913	167.2209	155.7783	148.4596	141.7941	130.3131	117.8673	103.0025	90.9011	78.7185	66.5816	52.4802	35.7885	20.3562	8.8778	0	0	0	0	0	0	0	0	0	0	0	0	0	0	0	0	0	0	0	0	0	0	0	0	0	0	0	0	0	0	0	0
358	272.4031	261.4585	238.6043	199.1541	190.5146	179.4569	171.5079	171.7999	165.2395	152.0953	148.9173	140.6085	128.6051	114.0503	101.0688	89.1919	78.4538	62.9256	45.3593	30.4258	18.922	0	0	0	0	0	0	0	0	0	0	0	0	0	0	0	0	0	0	0	0	0	0	0	0	0	0	0	0	0	0	0	0
360	279.1238	279.1967	248.5536	227.0845	206.5956	190.3281	178.8095	174.5439	176.2925	163.4606	154.2549	147.4098	140.5895	126.5886	110.715	99.8855	89.756	72.874	56.9373	38.9199	21.8902	9.9955	0	0	0	0	0	0	0	0	0	0	0	0	0	0	0	0	0	0	0	0	0	0	0	0	0	0	0	0	0	0	0
362	339.8617	305.5879	260.7622	228.254	204.783	200.2311	191.3264	180.9324	182.8621	178.7985	167.105	160.8183	151.7862	140.4421	120.6873	111.1682	99.5228	84.1854	68.4448	46.1364	30.509	15.6952	0	0.51	0.5881	0	0	0	0	0	0	0	0	0	0	0	0	0	0	0	0	0	0	0	0	0	0	0	0	0	0	0	0
364	340.1041	293.1943	263.1977	251.5125	223.1281	210.1	205.207	196.9706	192.8594	189.9461	179.7723	174.1822	163.7381	151.4144	136.6868	122.0585	108.947	97.6378	79.5742	59.098	38.3425	22.3097	5.8063	1.506	1.1577	0	0	0	0	0	0	0	0	0	0	0	0	0	0	0	0	0	0	0	0	0	0	0	0	0	0	0	0
366	364.143	316.1685	295.3276	255.8693	234.9549	220.4338	212.8496	208.8976	208.3811	194.5119	188.5727	185.3722	177.6306	168.0653	153.5235	132.6653	120.6095	110.7258	90.3995	69.2098	47.4347	30.4079	15.6883	2.4721	1.7102	0	0	0	0	0	0	0	0	0	0	0	0	0	0	0	0	0	0	0	0	0	0	0	0	0	0	0	0
368	388.5746	332.0164	309.2771	283.2649	242.3062	235.7445	228.4626	219.3678	219.8264	212.5599	201.9167	195.072	196.5598	185.8652	168.2877	143.0186	133.2105	121.0486	100.6413	79.0579	56.0943	35.5659	21.4017	3.4106	1.1235	0	0	0	0	0	0	0	0	0	0	0	0	0	0	0	0	0	0	0	0	0	0	0	0	0	0	0	0
370	400.7484	359.3899	310.2436	271.3802	264.0548	252.0803	238.8928	232.0614	227.4368	218.2352	218.6189	215.8562	207.7859	196.6743	183.3137	161.254	145.4006	131.0278	109.9424	88.5935	67.1941	45.2363	29.191	11.5901	0.5534	0	0	0	0	0	0	0	0	0	0	0	0	0	0	0	0	0	0	0	0	0	0	0	0	0	0	0	0
372	419.2736	404.0175	331.3018	311.0608	276.9748	254.0492	242.1199	244.5098	239.2452	237.1965	230.0251	227.1876	228.8979	217.3208	198.8846	182.9641	157.9903	140.782	119.5401	102.3286	80.4051	53.9136	36.5817	21.2777	0	0.88	1.0284	0	0	0	0	0	0	0	0	0	0	0	0	0	0	0	0	0	0	0	0	0	0	0	0	0	0
374	458.202	438.1104	359.2568	328.9941	294.7601	275.9398	273.6754	268.1972	261.4559	249.7266	251.2674	242.9957	249.6241	233.7821	219.2014	198.1431	170.3118	154.0508	136.9409	119.7616	93.3525	65.1246	42.9346	26.4266	9.6097	2.6136	2.0363	0	0	0	0	0	0	0	0	0	0	0	0	0	0	0	0	0	0	0	0	0	0	0	0	0	0
376	476.9861	439.8869	381.8711	348.0729	319.9806	297.8895	292.0932	282.3359	277.0403	266.578	266.1825	261.1883	262.094	257.1557	236.1576	218.8937	191.3708	170.8821	153.8569	133.8237	105.9434	76.0255	50.684	33.5199	17.7656	4.3083	3.0209	0.34	0	0	0	0	0	0	0	0	0	0	0	0	0	0	0	0	0	0	0	0	0	0	0	0	0
378	505.8348	467.8392	404.8596	369.3202	340.5491	321.2107	304.9342	295.4362	291.5569	285.8611	284.949	285.7593	281.376	273.8198	256.227	235.5932	209.9751	187.1606	170.2381	147.4307	118.141	89.5004	62.4366	40.4072	25.1145	5.9597	2.7706	0.6719	0	0	0	0	0	0	0	0	0	0	0	0	0	0	0	0	0	0	0	0	0	0	0	0	0
380	536.656	500.9659	436.5457	390.3245	358.1252	343.6235	319.5147	312.5505	309.2617	302.0902	304.7706	301.4515	303.2794	296.0472	275.2273	258.1348	233.9678	203.0172	183.3353	159.9131	130.0246	102.6419	71.7398	49.8406	31.6429	15.8481	2.5254	0.9957	0	0	0	0	0	0	0	0	0	0	0	0	0	0	0	0	0	0	0	0	0	0	0	0	0
382	616.9286	522.7753	477.3981	410.1644	376.6452	355.5824	331.2412	327.9259	322.085	317.3342	321.3029	320.0375	319.5809	319.2071	299.9282	278.6057	251.0671	219.4545	196.9748	172.0815	145.0585	115.9772	84.596	58.8483	36.9823	21.4457	2.2959	1.9314	1.1033	0	0	0	0	0	0	0	0	0	0	0	0	0	0	0	0	0	0	0	0	0	0	0	0
384	606.3559	560.1502	478.7826	431.332	391.2748	360.9071	349.6165	346.5399	338.2203	334.1633	330.5751	339.497	341.5869	326.4997	319.3039	293.3323	264.6867	232.4597	210.3942	184.0522	159.8605	129.1063	96.6328	68.9759	46.9523	28.6824	11.185	3.4618	2.1894	0	0	0	0	0	0	0	0	0	0	0	0	0	0	0	0	0	0	0	0	0	0	0	0
386	602.6359	571.9442	490.5663	454.7754	400.2579	385.9284	363.6602	357.977	352.0459	349.6937	347.9143	357.613	357.6979	349.6884	338.0426	316.0449	288.3469	259.2018	224.4337	199.3894	174.2721	142.5607	108.8873	80.2592	55.1347	37.12	19.7126	4.9865	3.2704	0.5502	0	0	0	0	0	0	0	0	0	0	0	0	0	0	0	0	0	0	0	0	0	0	0
388	678.6506	582.4925	531.3235	481.0235	436.2145	404.7149	378.0292	371.6957	373.0149	369.1223	363.8418	378.6792	377.913	367.67	356.8893	336.0893	305.9872	279.9127	239.2625	215.4187	188.4704	155.5525	121.5014	91.0717	64.8701	42.534	26.2358	6.5225	3.4518	1.0999	0	0	0	0	0	0	0	0	0	0	0	0	0	0	0	0	0	0	0	0	0	0	0
390	682.0469	624.6417	548.2452	510.733	454.8359	420.1239	405.2939	385.571	387.0783	381.3117	384.9277	402.6042	400.0823	394.1204	381.3329	355.4458	328.2386	296.0862	261.6529	231.4547	202.6722	168.5459	134.1167	102.0216	76.2397	50.7322	32.3728	15.0665	3.6331	1.649	0	0	0	0	0	0	0	0	0	0	0	0	0	0	0	0	0	0	0	0	0	0	0
392	731.5214	645.911	575.8821	504.6319	472.6926	443.7995	417.0462	396.3413	394.1228	391.0617	399.0149	405.3921	419.2462	420.6528	407.7081	382.6274	346.7971	318.1581	281.6585	246.0063	214.6127	180.4501	148.6192	115.9289	87.8131	60.6725	38.7974	21.4527	3.7914	2.697	1.2439	0	0	0	0	0	0	0	0	0	0	0	0	0	0	0	0	0	0	0	0	0	0
394	769.1803	690.3767	597.9571	548.9825	498.8626	461.2085	430.9507	418.3874	413.7533	411.3343	414.1094	426.9433	442.0556	434.3783	425.1995	403.0598	369.1808	336.5309	302.5799	260.3673	229.2866	197.8714	165.0245	129.6633	98.8194	70.0531	45.5564	27.3224	10.9216	4.2405	2.4716	0	0	0	0	0	0	0	0	0	0	0	0	0	0	0	0	0	0	0	0	0	0
396	802.7897	708.6292	633.4958	563.4189	503.0508	474.426	450.9042	432.6109	423.8872	428.8297	426.6994	446.26	454.1228	464.4719	437.3805	420.0604	395.925	358.2716	318.9855	281.0297	247.0344	215.4124	180.1788	143.4473	108.51	81.5057	55.5579	35.0011	18.209	5.7726	3.6889	0.6353	0	0	0	0	0	0	0	0	0	0	0	0	0	0	0	0	0	0	0	0	0
398	827.1069	743.4431	659.5927	571.5173	537.4176	484.9611	472.2161	450.8343	451.9654	443.4262	449.9303	468.0705	477.9548	480.1832	474.2834	440.1026	415.3188	387.4416	344.1598	306.6534	265.0361	231.7912	195.4981	157.3482	122.44	91.6606	64.7543	41.6627	24.3355	7.3006	3.9278	1.2661	0	0	0	0	0	0	0	0	0	0	0	0	0	0	0	0	0	0	0	0	0
400	897.7054	767.8089	655.8316	609.3035	561.1351	501.425	489.3828	468.6681	455.7044	455.7373	470.5035	476.7748	502.9525	503.6457	487.6116	467.3896	438.6535	411.4154	364.421	328.6024	282.9348	247.3909	209.5642	171.6897	136.2867	104.2302	75.0681	48.9218	31.3056	14.8889	4.1648	1.8926	0	0	0	0	0	0	0	0	0	0	0	0	0	0	0	0	0	0	0	0	0
402	898.7652	788.7054	677.4778	650.6234	588.472	534.9734	501.5409	478.4278	474.6106	475.0184	478.1593	496.8754	517.8654	520.6381	514.7709	492.4429	460.7404	435.0425	392.2849	348.3809	304.0471	262.4424	223.1581	186.6702	149.7913	113.3867	84.1598	57.1775	37.0109	20.8355	4.3926	2.9239	1.2312	0	0	0	0	0	0	0	0	0	0	0	0	0	0	0	0	0	0	0	0
404	908.3458	818.3779	737.3023	652.2733	613.5985	561.2744	532.2588	498.9876	492.2602	492.8653	497.5136	517.5876	532.769	542.631	537.2977	515.0591	483.2301	451.683	419.2415	373.58	325.5318	277.3423	237.6829	201.5038	163.1625	126.1816	92.903	66.9099	42.3498	27.7117	11.3101	4.356	2.4495	0	0	0	0	0	0	0	0	0	0	0	0	0	0	0	0	0	0	0	0
406	914.2643	826.4702	742.0376	662.7071	621.8263	582.0942	545.3038	513.5154	512.0651	501.9393	507.6676	526.6415	551.3632	562.8123	560.2115	536.9731	514.4721	475.9489	437.3062	397.324	347.2587	292.6421	253.0695	215.1571	176.5069	139.1103	103.013	74.0452	50.4872	32.8576	15.9739	5.7837	3.6618	0.2343	0	0	0	0	0	0	0	0	0	0	0	0	0	0	0	0	0	0	0
408	993.9063	863.2759	742.7526	711.3986	652.0298	598.0156	557.376	533.6631	520.1596	520.9825	524.8424	547.6775	570.9596	582.5924	577.8906	561.7263	535.4043	508.2423	462.541	417.051	367.9112	308.0898	268.8737	229.16	189.6795	152.2482	115.8312	83.8458	57.595	39.3699	23.5557	7.2151	2.9806	0.4678	0	0	0	0	0	0	0	0	0	0	0	0	0	0	0	0	0	0	0
410	964.5983	911.7463	829.2041	740.6928	668.4195	607.0925	577.5391	541.6515	535.499	529.1792	538.7606	564.0585	583.0247	606.016	603.3194	586.6697	560.6175	532.1746	486.6827	440.9877	391.2408	338.6197	284.6494	242.6779	202.8253	165.9998	127.4026	92.7426	67.2785	42.5233	29.0865	13.9585	2.3016	0.7006	0	0	0	0	0	0	0	0	0	0	0	0	0	0	0	0	0	0	0
412	1021.3016	920.37	839.4911	755.4749	695.7047	645.3646	585.6834	560.4266	548.1723	546.0828	551.6161	573.7584	602.0074	615.3536	623.4365	611.0178	583.9826	547.5672	513.2368	467.1219	412.368	362.7789	300.4196	256.6145	217.2479	180.377	138.9586	104.6777	75.4848	51.8243	34.0874	19.8004	1.6248	1.6593	1.1287	0	0	0	0	0	0	0	0	0	0	0	0	0	0	0	0	0	0
414	998.4662	940.9665	853.4057	794.9827	712.456	664.0639	611.316	571.918	564.5976	548.8531	571.8909	593.6013	618.0261	630.8591	638.6104	629.0803	606.3339	578.5397	536.9387	488.2168	439.9055	379.1595	320.304	271.1802	231.6447	191.8701	150.491	115.1752	82.1341	57.6229	40.3633	25.0912	10.6512	3.3406	2.2541	0	0	0	0	0	0	0	0	0	0	0	0	0	0	0	0	0	0
416	1055.2905	969.6612	871.8951	793.3594	712.6299	659.2974	623.3571	590.736	567.8642	565.4519	586.4613	595.9456	628.2305	652.2539	655.8701	652.3757	628.9412	597.2516	554.5015	514.0042	463.6684	401.1041	342.399	286.3759	246.5804	203.8047	162.3701	121.2314	91.0304	65.5047	46.7839	30.0218	17.0338	5.0284	3.3838	0.3665	0	0	0	0	0	0	0	0	0	0	0	0	0	0	0	0	0
418	1094.4893	999.7913	903.2082	805.5484	762.9155	684.4436	659.4883	595.6072	576.3856	577.7545	585.5898	617.4363	648.2389	664.0848	673.1127	679.256	647.2732	623.0008	588.4316	533.8131	486.6017	426.0788	359.5661	302.3063	259.2599	216.2626	175.6922	134.0808	103.2991	74.9535	51.221	35.3397	23.0486	6.7342	3.1142	0.7351	0	0	0	0	0	0	0	0	0	0	0	0	0	0	0	0	0
420	1121.6096	1003.3763	886.2055	839.4912	771.8345	711.3368	668.2904	613.891	600.7469	587.0135	602.2993	632.8914	664.2576	686.3138	698.4715	691.6024	669.4113	654.0149	613.4665	563.8884	502.1763	448.7581	382.4966	318.3507	273.0552	230.8488	189.2524	147.0202	111.609	83.1233	59.0794	40.2051	28.7233	13.536	2.843	1.106	0	0	0	0	0	0	0	0	0	0	0	0	0	0	0	0	0
422	1180.3062	1045.492	945.2902	869.8936	796.4752	741.6831	671.6991	633.6319	610.7549	595.6627	617.153	641.9185	672.6634	696.8771	710.6696	711.1859	704.3352	677.337	636.8476	588.7311	530.2261	469.6378	401.8274	339.2422	288.0504	245.5993	201.2	160.0882	119.858	91.959	65.5181	46.8783	33.0091	20.5788	2.5708	2.2218	1.3031	0	0	0	0	0	0	0	0	0	0	0	0	0	0	0	0
424	1147.249	1052.9689	962.6699	891.6056	815.4276	738.3462	686.0194	642.4745	626.5901	608.2337	625.5793	650.7542	689.789	716.2736	727.1296	736.8289	718.6143	691.8031	658.1982	610.4731	545.0389	485.1659	419.4301	359.7168	303.1575	258.6912	213.2338	173.253	130.8056	98.9416	72.2911	52.6434	37.2603	23.7932	10.0428	4.0895	2.6146	0	0	0	0	0	0	0	0	0	0	0	0	0	0	0	0
426	1150.3641	1085.2028	995.3557	898.3352	829.7007	763.2806	710.9104	651.038	632.0706	621.7795	629.8992	669.1722	696.6942	725.2149	747.2136	750.0627	733.9744	713.3375	683.386	630.9209	573.607	509.7608	440.0864	378.4517	318.8975	271.4311	226.9913	185.0999	142.0623	108.1589	81.3587	58.4111	43.7223	29.8376	16.1073	5.9791	3.9411	0.7006	0	0	0	0	0	0	0	0	0	0	0	0	0	0	0
428	1228.6339	1097.2247	993.9282	945.8044	858.1299	780.5575	720.3013	674.9766	636.8402	627.1689	648.386	669.9011	703.5588	736.4036	751.1016	763.7612	760.335	740.4589	703.9598	656.0384	592.8565	530.4768	454.8109	398.6726	332.7094	284.7569	241.2778	193.9221	153.6805	117.175	89.7122	65.9931	47.5365	34.4564	20.9958	7.8996	4.2816	1.4101	0	0	0	0	0	0	0	0	0	0	0	0	0	0	0
430	1248.2286	1125.7702	1040.07	929.3172	876.4298	801.2751	740.4871	681.5806	657.0707	639.7572	650.5438	673.0144	712.8128	759.7698	767.7805	790.0727	782.1953	766.937	728.7855	682.1918	618.9809	550.5545	484.3815	409.5607	353.3312	298.2467	252.2575	202.8487	165.4476	127.4255	95.9023	74.7162	55.5701	39.3845	25.972	13.1843	4.6261	2.1287	0	0	0	0	0	0	0	0	0	0	0	0	0	0	0
432	1256.9018	1176.4359	1051.0951	976.6312	896.4403	807.7347	757.5992	707.1118	666.7591	645.7551	665.646	692.8183	723.1828	772.7499	788.6221	805.4073	794.5092	785.1933	754.4312	703.7571	638.8887	569.2903	493.621	429.2558	366.2173	311.5558	261.3233	214.7802	176.7229	137.6544	105.166	77.808	60.6241	44.1984	31.2121	18.7225	4.9692	3.4055	1.4786	0	0	0	0	0	0	0	0	0	0	0	0	0	0
434	1276.6644	1145.4271	1053.2823	997.6686	895.289	825.4452	752.287	694.4692	674.1645	653.4636	661.1216	693.2071	737.5048	765.5331	796.4639	819.9656	814.1209	803.2482	776.0041	722.2965	660.2485	592.0906	513.058	442.2554	383.5254	324.2674	270.4772	226.8381	187.222	147.9925	113.0489	86.2305	66.8056	48.2812	34.9818	23.8845	10.2689	5.2508	2.9728	0	0	0	0	0	0	0	0	0	0	0	0	0	0
436	1300.2259	1183.6673	1091.5594	1000.5417	932.5958	836.4876	776.1441	709.9609	680.8762	658.8711	674.095	699.2399	752.9195	776.4668	812.7198	834.1119	840.6279	824.2455	792.9913	734.7531	678.0945	605.3117	529.9671	459.1429	393.4237	338.832	280.0815	238.4268	198.0853	158.6437	118.5388	91.5314	74.521	52.4902	39.0668	27.3781	15.7375	7.1244	4.4883	0.6584	0	0	0	0	0	0	0	0	0	0	0	0	0
438	1248.3777	1203.9729	1089.1011	1018.2402	934.1521	854.425	792.1383	724.1115	689.6546	670.3664	682.2596	709.7929	752.4505	790.5552	828.8792	849.0066	853.593	842.0882	811.779	761.0764	703.0317	623.563	548.6273	472.0467	411.9176	354.2886	290.1676	248.8815	207.0727	166.2128	126.8486	98.8998	78.2602	59.4401	44.3148	31.3744	18.5398	9.0333	4.5731	1.3269	0	0	0	0	0	0	0	0	0	0	0	0	0
440	1274.4514	1221.0398	1109.8099	1029.0642	955.4229	873.7049	793.0035	733.3578	702.1966	671.8311	686.7969	715.6673	761.8092	804.7869	829.3608	859.8472	867.0994	869.9354	833.528	783.8195	720.0826	644.7718	562.6018	491.719	421.5605	367.0841	303.816	256.0264	213.8841	172.4725	135.2776	107.1902	84.6478	65.0601	48.5301	35.1645	22.9755	11.6961	4.6587	2.0056	0	0	0	0	0	0	0	0	0	0	0	0	0
442	1320.497	1237.974	1090.6776	1047.3987	954.051	866.1813	807.674	741.56	697.7985	676.3685	689.8304	714.5058	768.6745	804.5744	843.0762	866.7263	880.3675	875.8321	848.4241	805.9515	739.3233	662.7331	577.81	500.442	434.3473	378.9643	318.7869	263.0512	220.6077	178.1542	143.7147	111.1032	91.8622	70.3747	52.7033	39.6656	27.9769	17.095	4.7415	3.193	1.3582	0	0	0	0	0	0	0	0	0	0	0	0
444	1323.0487	1233.54	1124.8946	1040.5979	978.0417	879.4871	820.7293	753.0103	714.7626	686.8496	697.8079	727.3529	759.3686	805.3744	845.154	881.6712	888.8624	889.52	868.5478	819.0766	755.3941	676.7346	589.759	511.5635	448.1639	387.3486	329.0063	270.1519	226.8857	183.8997	152.2599	118.5465	95.8162	77.2641	58.9728	43.8883	32.5392	20.4302	10.4731	4.9004	2.7348	0	0	0	0	0	0	0	0	0	0	0	0
446	1323.123	1234.1743	1147.0629	1051.0741	976.7081	880.5834	818.157	741.2016	709.9112	686.4222	696.5948	726.3248	765.2141	815.088	860.3205	889.7957	898.308	906.0159	871.779	825.6626	770.6217	687.2033	597.6669	530.0677	459.0173	400.502	339.4484	277.5092	233.1208	192.8624	159.2723	126.1664	105.4089	83.0626	64.3573	49.3797	35.4979	25.7439	15.1696	6.6349	4.1327	0.8276	0	0	0	0	0	0	0	0	0	0	0
448	1344.1002	1278.6142	1130.3489	1051.1726	988.1478	906.2122	826.0131	758.3563	708.01	695.8514	704.9509	732.8692	781.1943	811.5121	855.012	898.425	914.7275	924.3771	887.3947	846.6897	784.1552	705.7692	615.3046	537.8691	470.5533	408.7681	349.4296	289.1472	239.5807	202.0741	162.9619	133.9762	110.9214	88.7405	70.1586	51.9689	38.7229	29.8932	19.1073	8.3999	4.7277	1.6685	0	0	0	0	0	0	0	0	0	0	0
450	1317.4499	1235.9184	1157.0513	1081.9786	988.4776	908.2468	831.6962	765.0339	730.2693	699.2516	711.4725	734.236	776.2792	819.7812	867.7193	902.6618	925.5856	928.3473	898.5136	861.2496	793.0097	716.8114	632.0571	549.6661	476.2599	419.2966	356.81	297.0211	246.1168	207.8768	166.6909	141.899	117.0482	94.4808	75.2598	57.9461	42.675	33.538	22.5899	12.4322	5.3317	2.5225	0	0	0	0	0	0	0	0	0	0	0
452	1347.4851	1267.489	1146.3904	1087.0618	1001.1153	921.7687	842.4348	777.4658	720.4075	696.7377	696.6987	736.716	784.4154	823.6108	869.9172	907.1058	915.7687	935.0174	906.6545	867.5125	800.293	725.3461	635.398	556.9491	489.7564	425.2051	364.3064	308.3408	252.8467	212.0623	175.0196	149.4425	123.3176	99.4575	80.06	61.7358	46.8672	36.2886	26.566	15.3046	5.9473	3.8159	1.4928	0	0	0	0	0	0	0	0	0	0
454	1400.3124	1246.2066	1140.7531	1107.8597	1027.6368	912.1099	853.5065	765.8465	716.9792	702.708	699.633	738.0905	776.4995	822.8701	865.8811	907.1321	926.3114	939.1297	913.0452	877.3648	814.6529	736.7663	648.5467	566.0397	493.7325	433.2944	371.0887	315.4265	263.6326	216.2897	183.4689	155.9616	129.6777	105.0073	84.1948	68.7199	52.1145	40.5754	30.979	20.2522	12.9004	5.5585	3.0103	0	0	0	0	0	0	0	0	0	0
456	1340.428	1223.1341	1162.0004	1092.7036	1021.2284	924.0067	858.727	768.2932	735.4373	701.0509	706.8149	734.0219	775.0007	811.5051	866.5281	907.3305	924.9982	939.5685	917.88	879.4207	818.5408	744.153	652.9345	576.2098	504.5641	439.8304	382.6513	320.5211	267.5191	220.9012	191.1873	162.8217	136.3388	108.2039	90.2342	72.7128	56.6163	44.5683	34.1064	24.7783	14.9969	7.3404	4.5596	0.9238	0	0	0	0	0	0	0	0	0
458	1359.2355	1242.6003	1168.5839	1094.3278	1009.6302	942.2334	843.1053	764.5552	727.6748	704.309	711.914	735.2188	783.4	812.1534	862.8429	905.7518	934.5289	942.7725	932.831	887.7744	828.385	742.0963	662.0799	577.1665	510.1067	446.8983	383.1826	325.5771	275.8776	225.909	197.6969	167.9499	140.1445	113.016	96.6464	76.8269	63.1543	47.4053	37.2128	27.6128	19.006	9.1698	5.2305	1.8683	0	0	0	0	0	0	0	0	0
460	1360.0088	1244.266	1183.8889	1096.8402	1025.2334	925.6333	854.3253	776.2789	720.6531	710.7859	709.5483	734.6869	777.2338	811.8588	858.2391	918.6621	933.1576	945.1603	930.8639	891.9936	831.4857	754.1747	673.6314	587.8446	514.0192	446.8731	390.5494	330.1741	282.8609	234.6682	201.1152	171.0316	142.5781	117.9095	99.1898	81.3335	65.386	52.4268	40.1986	29.9928	22.3457	13.497	5.9152	2.8334	0	0	0	0	0	0	0	0	0
462	1298.4349	1240.5682	1179.2797	1096.2623	1006.5983	917.4331	842.012	783.4303	725.5367	701.9894	700.3724	732.5873	771.8349	814.7822	862.5181	908.4913	938.7389	941.9048	920.8279	893.9698	837.378	756.5268	669.3642	587.8399	515.9503	457.8645	395.1165	338.0569	288.6143	241.3705	204.787	174.3331	144.4799	123.0194	105.2842	85.7463	69.3586	56.5546	44.2919	34.1393	25.8361	16.6985	6.6207	4.0596	1.404	0	0	0	0	0	0	0	0
464	1336.2187	1258.0097	1149.8741	1093.0227	1023.1325	942.0896	848.9204	779.5442	731.5134	706.7976	712.21	731.1843	761.7321	808.5128	849.9589	896.3226	926.7605	928.9651	928.0835	896.6117	831.3771	757.6395	676.0376	591.4241	523.6862	464.1753	403.5065	344.8269	291.8738	249.5116	208.4894	176.953	146.3863	128.2192	108.3182	92.6472	75.3315	60.6122	47.1995	38.3277	28.2783	20.4496	11.4723	5.5534	2.8414	0	0	0	0	0	0	0	0
466	1314.5394	1249.1751	1180.132	1090.5095	1021.183	928.2416	856.2575	777.0307	737.3245	695.9208	701.8402	729.6361	755.3433	795.5235	849.7576	890.2415	919.6429	929.389	930.9313	890.0529	832.3839	762.3016	674.0494	592.5633	528.1479	465.9636	400.3502	346.5893	295.5867	248.8337	212.2878	179.2812	151.9276	132.347	111.4289	95.1925	77.7017	63.6842	52.0217	39.9398	30.9183	24.3233	15.3029	7.0834	4.3136	0.9732	0	0	0	0	0	0	0
468	1292.4053	1243.2943	1171.0572	1100.7788	1027.7376	948.1069	858.9484	791.2213	733.601	701.4303	695.2721	724.057	751.1635	795.4385	842.8873	888.1426	906.7732	923.4358	922.3334	884.6984	831.526	762.8306	674.5866	593.4862	528.8114	465.6863	407.1892	351.5684	304.6588	258.9745	218.9035	181.6694	157.6093	134.1432	114.6181	96.3714	80.9548	68.323	55.703	43.2093	34.9936	26.6757	17.3633	8.6511	5.1931	1.9702	0	0	0	0	0	0	0
470	1269.3806	1223.8625	1152.7598	1072.9512	1025.4528	922.2135	852.4579	771.556	732.2887	694.4285	697.1702	716.1791	741.0535	786.7496	831.6419	873.0527	899.1015	915.0238	907.2053	872.659	823.6263	757.0926	672.3043	590.5095	527.5156	468.4231	410.6748	352.3464	303.6598	260.2284	220.3445	184.0627	160.9258	135.9438	117.8522	99.763	86.3198	70.7813	59.384	45.7832	36.9727	29.2827	21.7146	13.9218	6.0925	2.991	0	0	0	0	0	0	0
472	1248.6115	1195.2574	1134.4712	1095.4782	1016.3956	920.4034	853.5312	773.133	728.3203	691.8123	688.5855	700.7174	744.7772	772.5585	819.9071	858.7827	895.1983	910.127	886.2311	866.6134	813.0368	748.8425	666.3756	589.08	527.6709	466.4694	410.7666	355.7361	302.2716	265.0158	222.4812	186.9059	163.4206	139.7606	121.5435	103.4538	87.8709	74.8011	63.6047	48.9218	39.0622	32.1411	24.1451	16.145	7.0285	4.3119	1.5142	0	0	0	0	0	0
474	1226.7611	1179.8235	1132.0088	1038.481	996.3302	907.1005	836.0019	762.8447	709.5633	689.11	676.9869	703.1284	724.5901	763.0409	806.5527	840.3514	879.9548	888.8375	878.9203	851.9013	801.6682	739.3323	663.4351	582.3285	522.9971	469.4202	410.7426	356.393	304.0982	265.2323	228.7917	194.0598	165.921	143.6312	125.5444	107.2095	92.523	79.4913	65.0653	53.1708	42.0683	34.4675	26.9524	19.8557	12.2038	5.9395	3.0712	0	0	0	0	0	0
476	1202.673	1161.9773	1112.055	1055.803	1001.7581	912.5649	834.8438	757.8687	706.9751	674.3869	671.3187	688.1851	722.209	742.6293	784.7094	828.3957	858.3943	877.0441	868.8761	837.6428	794.7221	722.5594	652.0465	583.3157	522.7739	468.7988	410.5169	354.1881	304.3685	267.5837	230.4635	198.1004	168.2725	147.6744	129.4915	110.9286	91.8667	80.1981	65.8443	55.947	45.0463	37.0938	30.3397	21.8856	15.3328	7.604	4.6669	1.2099	0	0	0	0	0
478	1176.4754	1142.2065	1113.0603	1043.7685	993.0631	898.2349	830.0419	761.9854	711.5564	668.7536	665.6369	673.1007	706.267	732.0887	768.7975	810.9651	835.1833	851.5494	857.226	824.4736	782.4374	717.6082	642.542	576.5153	521.0841	463.0661	411.5811	363.6279	305.1123	270.6836	234.565	200.7604	170.4746	151.2951	132.4312	113.1761	94.7342	84.421	70.893	57.8391	47.6705	39.0496	31.0987	24.6675	17.9889	9.3009	5.9911	2.4488	0	0	0	0	0
480	1149.3796	1121.6693	1083.9986	1067.8095	992.5169	896.5252	823.5383	747.6573	694.0998	671.7962	661.5435	672.4173	697.8176	728.7702	748.9569	800.908	828.3521	844.1656	829.092	807.8817	763.4089	708.7793	636.4152	570.7503	513.9666	462.8256	407.8201	355.0335	308.2822	266.7217	235.6847	204.8649	176.1621	153.5316	134.4457	114.816	97.6441	86.728	74.072	62.0428	50.3023	39.9921	34.6257	28.7871	22.0901	13.0677	7.3452	3.7166	0	0	0	0	0
482	1118.9503	1097.9753	1083.8118	1029.7306	983.7765	887.9109	818.8483	735.4474	688.3387	656.0346	649.9947	660.3067	678.3163	708.4261	747.9721	780.1287	807.1809	820.3614	817.8144	798.1563	758.6488	701.4239	628.4603	567.0122	504.0688	458.5795	410.3203	358.0977	308.8244	269.7671	235.5544	204.1858	177.8365	155.4558	136.1881	115.9236	100.3879	86.5914	75.5001	62.7986	53.0019	42.9333	35.4117	29.9547	23.0429	15.5356	8.7114	4.9821	1.43	0	0	0	0
484	1087.8254	1073.6799	1062.3152	1023.4633	974.6146	880.1638	818.0055	740.8536	680.7224	651.8918	643.7112	648.484	671.8759	695.616	723.6395	763.2315	787.6235	795.3753	802.9686	781.8015	742.7015	684.9123	620.6587	556.5431	505.3565	454.9068	407.1123	358.1428	309.8754	267.9529	238.6917	208.1409	181.4448	157.3889	137.6394	117.0316	103.1666	88.2953	79.035	65.8762	54.7589	45.9576	36.8532	32.3841	26.1153	18.6676	12.2253	6.2498	2.8871	0	0	0	0
486	1055.7944	1048.5731	1037.7888	992.7911	952.5968	864.1851	792.7104	718.2475	677.75	645.1367	637.5218	636.7384	660.2495	677.6677	706.4611	743.4369	772.9625	785.7673	784.868	763.3304	727.3055	672.2296	618.9245	552.1588	494.5365	448.9116	406.4901	354.189	307.2807	275.1589	239.3996	207.9783	181.5961	159.2993	138.9152	119.9472	105.202	89.9984	79.4378	68.3398	57.359	47.953	39.4054	33.9054	28.1144	21.0579	13.7948	7.539	4.3707	0.7637	0	0	0
488	1022.8909	1022.6817	1012.4888	975.7646	947.1186	872.7718	790.4365	726.6988	670.5007	622.0819	624.5536	624.1249	649.0181	669.071	696.2126	726.7401	757.0351	758.3754	762.4658	742.9047	716.1058	661.688	605.454	543.8941	494.5032	444.806	396.5491	351.9234	309.5089	273.9312	240.8308	210.6927	186.1828	162.1	140.1638	122.873	105.7079	91.7003	81.8711	70.349	60.7693	51.0445	39.8372	36.2863	29.515	22.723	16.6582	8.849	4.7325	1.5411	0	0	0
490	989.3475	996.232	986.6397	971.3653	924.9877	868.4743	785.7256	716.0659	654.7415	625.6555	618.7258	615.9466	630.9338	647.7481	680.1832	705.5869	725.8283	750.5603	750.6281	727.1746	696.5778	652.7146	586.6747	536.5107	487.3127	447.9308	393.904	350.9108	304.7465	269.9335	240.704	209.9492	186.0676	162.5994	141.4127	124.2941	106.2063	93.4183	80.2492	72.243	60.8589	52.4131	42.5701	36.518	30.8974	25.6301	18.8883	12.8121	5.1	2.332	0	0	0
492	956.1188	968.9357	961.1994	951.8305	936.2115	828.5443	785.3183	701.0551	659.0248	625.8716	603.5828	619.4231	624.6678	635.2957	664.4292	691.8861	717.4845	725.2501	731.7543	709.4305	677.6529	637.5027	582.146	524.4817	481.2904	437.0636	393.784	346.428	307.4044	273.6965	235.3679	210.5234	187.3762	162.1178	142.7981	125.0644	108.1521	95.2426	82.198	76.0187	63.5565	54.7923	44.4784	38.1292	32.513	26.8686	20.8914	14.1083	5.4784	3.5691	1.4161	0	0
494	922.1752	939.7392	935.1467	931.5229	897.3278	830.8812	772.1223	699.5081	639.0143	609.6604	600.0566	598.5463	602.2684	625.3198	648.4565	682.3926	694.2736	704.7935	711.0838	697.1827	659.4374	628.2998	572.0332	518.2665	472.6484	433.176	394.3522	347.1729	306.078	267.9359	239.5843	210.7605	188.2893	166.6431	143.0834	125.8264	110.1157	96.2898	84.1697	76.1082	65.9076	55.4018	48.3764	39.3371	33.5744	29.3928	22.1667	16.2471	9.831	5.2634	2.8596	0	0
496	887.2444	909.6055	915.2117	909.0479	876.1979	818.4654	744.6831	683.6509	633.3857	604.9178	583.5617	587.422	595.7511	609.6089	633.6513	659.8587	677.8677	690.3939	690.7172	684.6645	643.5762	608.2531	559.995	510.0726	465.4379	427.0492	382.9992	342.6856	300.7198	265.6294	240.8655	211.9425	189.0861	166.2185	148.2333	126.5414	111.6636	96.909	86.138	76.2101	68.2727	57.0873	50.2406	40.998	34.7279	29.4287	24.339	18.6728	11.8642	6.9873	4.3292	0.962	0
498	851.3761	890.3407	886.7999	885.777	886.2975	805.8969	731.4565	667.4183	622.2122	591.3817	570.2774	564.7845	578.0281	598.4427	606.6128	631.9168	656.5768	667.1059	669.0751	655.9462	627.4903	593.8408	545.9599	498.7986	454.1023	418.7698	382.6558	337.5757	298.5344	263.6663	236.2304	207.2931	188.4012	167.6656	146.8222	127.2101	112.3807	97.4941	88.1019	76.8515	70.1971	58.4031	51.8294	42.7145	36.0129	30.828	26.6602	20.8365	13.8505	8.7394	5.1751	1.9411	0
500	833.8849	858.0756	857.8281	862.0095	850.5324	772.0447	719.3351	654.6514	608.06	579.1464	562.231	559.055	569.0843	576.5523	594.6414	624.6983	634.9217	644.6782	642.7869	639.4066	612.0853	578.747	526.5675	488.712	450.4998	412.1116	375.0813	334.4169	294.3022	264.1442	234.8304	207.246	185.6217	166.5229	147.5956	130.7875	113.0932	99.5612	89.3441	77.4924	70.1052	62.3376	53.4376	44.8356	37.6156	32.3774	27.5997	22.242	16.1894	13.0771	6.0352	2.9372	0
502	873.6329	824.9636	829.3015	837.4891	842.4278	775.614	724.5691	651.6994	606.2388	569.6983	557.5021	545.821	556.9869	566.3796	582.2533	601.8182	616.4078	630.5397	633.2477	616.2919	595.5405	557.5648	511.9782	473.8156	440.9902	400.5771	366.9299	330.5277	290.4884	260.3063	232.5854	205.3933	186.8688	166.9316	149.9265	127.4632	113.7671	101.6191	89.0688	78.1096	71.4009	63.2946	55.107	46.2457	38.4197	31.6274	28.6781	23.998	18.3932	13.8954	6.9074	4.4404	2.1426
504	776.8625	791.2908	801.5245	812.4994	811.5404	745.4587	702.33	628.6161	578.3933	553.7115	540.0775	534.2842	547.8847	543.2909	556.6322	585.862	594.6936	606.0553	603.6311	599.4418	573.8313	545.6662	504.4753	462.6942	427.1655	393.063	364.3646	323.295	290.5375	256.0285	231.9618	203.6584	185.0042	166.5881	146.4008	131.1953	114.4365	102.1873	88.7766	78.7263	68.6782	63.5087	56.4271	48.013	40.2647	33.4589	30.2026	25.3875	19.4232	14.8497	9.9993	6.4637	4.3211
506	828.1575	757.9834	774.1916	790.8238	781.5631	747.1772	686.7234	614.98	578.4964	539.5881	516.3036	520.0221	525.2179	528.2646	545.285	555.787	570.8022	580.115	586.9958	572.7945	560.3699	529.6457	485.9078	447.8386	418.7189	388.7362	353.3936	318.9499	281.3152	257.3511	227.1707	201.2811	183.7974	164.2741	145.1076	131.7593	115.2369	102.1098	89.5809	79.4356	69.1313	64.764	56.8381	49.1115	42.2954	34.068	30.9693	26.3428	22.5048	16.7482	13.0444	8.53	6.5432
508	683.4652	724.8943	763.2666	766.3848	751.8744	724.7141	651.9861	615.8258	559.6419	524.8887	518.7464	504.7562	511.2482	520.1896	526.8584	542.1554	553.1812	562.0518	570.0674	557.6939	541.8123	504.1546	471.9598	435.0128	410.0371	379.6442	350.3687	315.4518	279.3415	249.4926	226.2462	202.2635	182.0856	164.9282	147.1951	131.3116	118.1322	102.1319	90.49	79.5207	69.6616	65.0955	57.7976	51.8482	45.0229	36.2017	29.9283	27.9396	22.6163	19.1093	14.0221	10.6464	8.8167
510	670.405	725.7537	735.3438	741.3217	721.4836	703.6616	650.103	602.0599	557.704	523.2331	498.9328	495.1546	493.0975	498.636	511.7573	525.5925	533.631	540.235	540.8932	535.2941	525.0117	493.1792	459.7504	427.633	399.3412	370.2482	338.7103	308.0789	277.3878	244.3451	219.1719	198.8549	180.8632	163.9048	146.2596	129.5861	116.4891	102.1322	91.0337	79.2283	70.188	62.5779	58.6229	52.6544	44.5514	37.5687	30.8903	29.0489	24.7605	20.6242	15.2045	12.1851	11.1363
512	656.8578	719.3602	706.6679	711.3435	690.3068	667.3258	641.0051	588.2283	538.3483	501.8395	494.54	483.9758	478.0709	482.5525	500.6228	507.8687	517.1639	520.5456	525.5217	516.5174	500.2025	480.7333	447.763	415.7967	387.7745	359.0631	333.6908	299.9634	272.0648	243.2411	217.1358	193.7742	177.7513	160.1847	143.7562	130.0347	113.9843	102.0973	90.8208	78.9031	70.7012	62.7867	59.4859	52.956	44.8528	40.2829	30.8361	27.8621	25.528	21.6205	16.3497	13.5314	13.5005
514	642.9166	664.206	677.3448	676.4687	658.4508	660.8153	612.8688	577.1687	524.5579	493.9725	478.287	473.9727	465.4608	464.6244	472.1146	495.0835	495.4859	512.8694	507.4288	500.3965	492.582	458.7382	433.3349	400.5006	377.2137	355.3646	324.3652	297.6807	265.7175	234.0006	212.609	193.4027	174.5271	158.5442	145.0134	128.6521	116.1241	103.3962	90.585	79.4936	70.9334	62.987	59.805	53.9156	48.0733	41.3865	32.9998	26.0525	24.8294	22.2923	17.9285	15.2507	15.2159
516	629.0783	674.2421	647.8912	641.3825	650.8816	639.2096	602.0136	553.4169	521.8366	476.0243	462.8368	459.2867	454.4089	455.0446	463.5832	473.2728	480.7951	490.9501	494.5439	484.2562	466.4254	451.8998	422.1876	392.9448	366.2161	346.1224	319.1897	288.7406	258.4867	235.1173	210.8125	189.7054	172.2687	157.1429	142.1235	129.3317	114.538	100.9319	90.3957	80.1414	70.6506	63.227	56.2713	54.6782	49.5361	41.4455	35.1261	26.7609	25.2622	23.0486	20.3504	15.6519	15.6163
518	615.2946	600.5484	618.2236	632.5058	628.6122	617.5199	588.2798	538.1143	502.0091	470.5481	452.9361	448.7962	446.4338	445.8562	449.4984	455.788	470.145	472.0161	470.9815	465.093	460.4193	433.4853	407.4891	381.8334	355.3909	339.9082	310.231	283.5209	250.9076	226.9108	206.805	185.5744	168.748	155.4995	142.2834	127.5142	114.9093	100.3434	90.2501	80.2747	70.399	63.5059	57.0833	54.1788	49.4249	42.5482	37.4608	25.8231	23.3477	24.0737	21.0099	17.7243	17.684
520	601.0553	525.9856	607.2285	607.2065	605.7216	595.2224	570.1569	521.6131	487.539	464.0529	440.4061	431.204	427.4515	427.681	431.9769	437.361	454.1515	452.3839	457.3801	448.9517	439.927	419.4688	396.5073	366.1091	347.8828	331.6715	303.6959	271.8827	247.6287	226.3712	203.9792	182.4034	168.0936	153.0584	137.7204	125.443	113.8617	101.845	90.0781	80.1014	70.7447	63.7749	57.0928	54.6561	48.6013	42.5281	38.4994	26.8812	21.9151	24.3834	21.0601	18.3014	18.2598
522	586.3241	517.9367	547.2876	581.2084	581.2972	572.2825	574.146	509.5108	478.7727	450.7052	430.489	414.1536	412.2907	413.3366	413.0306	433.0896	430.9401	440.0856	437.3179	435.2334	424.5154	402.5621	383.2376	361.0426	340.8215	318.8109	295.4101	270.3736	243.3829	220.2777	199.5335	179.9399	164.7913	154.5476	136.6896	123.3967	113.2282	100.7248	91.7379	79.8991	71.076	63.2915	57.0846	52.6127	49.3257	43.9121	39.3497	29.8337	20.7482	22.5477	23.1349	18.6644	18.6219
524	571.1439	509.5885	576.5852	554.5598	555.3645	548.7469	536.0755	503.3787	465.3555	437.5208	421.6619	410.6276	405.7417	398.6016	405.972	415.0749	418.9067	420.4219	423.8304	417.6597	408.9366	387.794	370.0548	348.9543	332.5697	308.9813	291.5783	263.1191	236.1502	215.0977	194.5328	176.4924	163.736	145.9161	133.8874	123.3411	112.4178	98.6438	88.6899	79.673	71.0232	62.4089	57.0624	52.856	50.2166	43.4801	39.5792	31.9968	19.8288	19.9139	22.0212	19.5243	19.4798
526	555.9005	501.2871	564.361	527.6293	529.163	518.5176	514.8569	486.0119	457.0419	428.8731	406.2554	396.5899	394.1751	385.8408	392.8769	398.4346	407.6464	408.2723	404.9441	402.2727	397.118	378.5133	361.0498	337.8985	320.1396	304.7648	283.3034	257.1365	231.5905	211.0792	189.9381	172.5487	158.1843	145.8289	129.6243	118.8011	111.1301	98.784	89.5962	79.4767	70.2433	61.5339	57.0647	52.2025	49.4737	43.5863	38.8026	35.487	21.5181	17.8695	21.5332	20.2136	20.1675
528	540.5501	493.0034	543.2993	500.352	507.4413	501.713	493.3941	475.3613	446.8022	410.0553	393.7293	386.3235	375.5657	380.7291	377.5507	390.2499	385.928	396.9487	395.1569	396.7636	380.904	364.1781	346.0647	330.0607	316.7309	299.8406	272.6934	250.2145	224.1772	207.905	188.2124	167.3698	154.9424	141.0199	130.0559	118.8219	106.8962	97.1275	86.5406	77.5603	69.4736	61.6169	56.7018	51.5548	49.193	44.7704	39.1508	35.6922	24.194	16.3531	20.3382	20.6682	20.6211
530	524.6956	484.3831	472.8491	488.6013	488.2354	484.3855	471.3168	458.2895	428.627	402.8601	387.194	380.2753	366.0975	361.959	369.9205	371.2087	377.866	382.6423	380.6872	372.7184	368.1237	355.6264	336.2968	314.6242	301.4023	289.2937	268.7039	248.8461	222.2119	203.6107	180.9803	165.2342	154.6135	140.6698	125.4396	117.0684	106.829	96.6697	86.1782	77.2361	68.6654	61.6843	55.5278	50.8768	48.2829	42.9952	38.6769	35.6828	28.9431	14.817	17.7189	20.0544	20.0087
532	508.417	475.4995	369.5022	491.0962	468.5413	463.415	448.6973	448.3532	418.1753	395.5499	363.4168	362.4739	363.0859	353.1578	357.0188	358.1233	360.5208	370.7107	365.476	365.1659	356.9601	350.458	327.1404	305.8068	294.4658	276.0848	260.7393	237.5394	216.1945	199.0523	177.8264	164.468	147.1987	136.9001	124.7757	114.3214	105.7747	93.9358	86.6506	77.7943	67.8288	60.9539	54.3185	50.176	45.8895	44.223	40.2523	35.2953	28.7823	17.3698	14.3515	18.3567	18.3149
534	491.6321	466.2766	383.084	491.5191	448.2834	438.6346	425.4623	428.4663	418.8739	381.754	364.9423	357.3719	352.1037	342.312	343.6214	341.6736	350.9573	350.683	354.8425	354.6739	342.061	332.5705	312.2509	298.4363	284.5022	274.1054	257.2274	234.3694	207.1575	195.9647	173.3772	156.9204	146.6443	133.7267	123.3346	112.4459	102.796	94.7523	86.3584	76.9031	66.9533	59.7889	53.6493	49.4444	45.6085	42.2259	40.8478	35.7062	31.2271	21.5179	10.8855	17.9492	17.9084
536	474.5913	456.9538	397.1034	469.8117	427.688	413.4261	408.6449	410.6829	395.7753	365.2631	359.8769	348.4707	336.8273	334.6671	332.8366	334.9225	340.7596	343.0615	346.6736	339.1611	335.6831	320.8021	305.25	287.5679	278.7327	263.3651	248.6266	225.0001	205.7388	191.5594	174.8375	154.4444	145.7232	131.2061	121.3704	110.7796	101.5709	92.1584	80.117	76.9031	67.1524	58.6103	52.977	48.9192	45.3317	43.7358	39.072	34.3911	28.9912	24.3174	10.7838	15.2957	15.2609
538	457.2605	406.248	411.5763	464.8707	406.7171	399.4387	394.7885	392.5792	373.6043	361.8699	343.8396	336.0081	326.414	317.4597	316.8452	319.809	332.2885	337.1898	334.355	325.7643	320.2581	310.6493	298.4103	279.6994	269.8902	256.9473	239.7933	222.9044	198.4987	184.6633	166.4976	151.2803	141.9523	130.3038	119.8264	108.0853	98.7477	91.008	84.889	73.9607	66.063	57.4151	52.4056	48.4989	45.0578	41.6566	40.0941	35.0599	29.8926	26.3442	11.7672	10.6581	10.6339
540	439.3821	421.755	426.302	428.9257	395.5542	384.0489	380.4806	373.932	384.1921	348.1125	336.5177	327.4494	309.2675	314.6044	310.5873	306.9987	322.2256	315.417	318.1148	316.4137	313.9801	300.173	285.5437	270.6684	260.3978	247.8532	232.9155	211.8041	197.8151	176.4682	165.4603	151.3322	136.9858	126.0548	115.2276	105.7338	97.7065	90.3159	82.2847	74.0212	65.5532	56.1725	52.0189	48.0531	44.7631	40.7114	39.1193	35.3683	31.22	26.6857	14.8335	7.4539	7.4369
542	421.9589	410.5016	390.8314	373.1068	414.4952	369.0563	364.0922	355.5843	361.103	345.1231	320.6563	313.8028	308.9833	303.4789	303.6867	303.0244	307.7456	309.1423	311.005	307.2926	300.3659	292.6156	281.5535	259.7622	254.6663	245.1846	230.359	209.3699	191.8278	174.6679	161.1011	144.7332	135.337	124.0887	114.9931	105.367	94.3869	88.9121	78.9016	72.4527	64.6115	55.6328	51.7273	47.8972	44.2984	39.8234	37.0631	34.3256	29.515	27.5921	20.5651	5.5374	5.5248
544	493.3568	418.7239	345.0391	282.1407	405.7916	353.493	344.5698	336.5851	348.4934	332.8569	314.2634	310.1429	306.1345	290.9083	292.8753	296.3955	300.3472	300.0678	297.8286	305.7604	292.174	283.0148	270.8985	254.2327	245.0818	236.8648	223.2237	205.3203	184.711	171.8912	158.6502	141.3487	129.2513	120.4098	112.0385	101.8487	91.9306	85.3076	78.2735	73.6449	64.1141	58.5587	51.4056	47.7168	43.2888	38.8929	36.6378	35.5415	31.0609	26.5046	21.8915	7.509	7.4919
546	506.3227	424.3854	344.3796	302.1792	392.0474	337.1743	324.2027	330.9482	333.9544	326.159	301.5865	303.0459	285.7296	288.4112	284.0597	284.0472	283.7318	290.0629	287.8364	290.3209	282.8383	272.714	264.5691	253.9394	235.5468	230.1066	215.1517	201.8105	179.178	168.2159	151.654	138.8814	128.9259	119.0971	109.2683	99.9008	90.9975	84.3037	76.7493	71.4745	62.9987	56.9716	51.0259	46.9706	42.2095	37.8993	33.8037	33.5469	30.1481	27.2508	23.4169	11.5651	11.5387
548	494.6687	418.0368	338.0263	322.5132	384.6664	320.1382	325.6213	315.9245	318.7427	308.0915	294.4228	292.9611	280.5337	278.3378	268.6419	274.3836	277.3664	276.4113	272.6601	279.5424	269.2563	264.0294	249.9334	239.5495	232.8129	220.3475	209.8137	192.9087	176.7686	164.3154	149.2092	136.6732	125.1557	113.5766	106.6563	100.0632	90.8781	81.7322	74.538	69.1251	62.2792	55.7962	50.5899	45.9014	41.2214	36.845	33.4202	33.9191	29.693	27.7193	23.536	16.6376	16.5997
550	509.6938	411.39	345.9237	343.3035	375.6349	329.6794	309.7274	300.432	303.057	302.8165	287.5274	278.7167	273.2517	262.4395	263.3523	264.7252	264.8676	265.5095	266.6484	267.9375	265.767	256.5634	241.9422	229.3409	225.3229	216.9437	205.3248	188.2507	173.2565	161.3154	146.4961	132.5098	123.1115	112.3593	103.0489	93.4527	87.769	80.2239	74.4976	67.0219	61.0896	55.1976	49.4692	44.7897	40.1945	36.011	33.0159	31.1689	28.9591	27.9847	24.448	19.3291	19.2851
552	479.235	405.6023	369.7045	365.5942	361.2197	303.5705	294.1901	285.2944	287.7163	293.5293	272.8547	271.3521	263.159	260.6877	260.8616	255.3981	258.3424	261.0422	260.3308	260.9526	253.3877	246.297	231.111	227.446	215.7307	208.122	195.3911	184.7432	166.5348	156.6687	140.4775	127.3792	119.5794	108.5809	101.5703	92.1406	84.4759	78.3489	73.0364	67.2486	59.7637	57.0128	48.0936	43.7583	39.3695	35.3749	32.6825	29.9584	28.8366	26.6333	23.0862	19.7579	19.7129
554	472.3354	399.4475	361.2539	328.0309	299.0157	316.1829	278.0599	269.5921	271.7914	283.9478	275.5049	261.9674	256.4534	250.186	248.5356	250.9018	247.967	248.1986	253.1347	247.3965	248.6972	235.6604	230.7121	218.9667	209.2566	204.1603	192.2324	179.9546	162.8638	150.3577	140.0009	124.4955	117.5404	107.5098	98.3345	90.0206	84.9194	77.6738	71.5303	64.7508	57.3331	53.7238	49.3173	42.6748	38.7664	34.7028	32.3236	29.2686	28.3195	26.2655	23.9993	20.5675	20.5207
556	438.3075	397.6219	299.3113	216.0275	145.0416	318.2164	261.4362	253.409	263.7608	272.0294	257.2443	257.4764	251.5667	243.3224	240.5097	243.3595	242.1877	240.465	241.2777	241.065	237.845	231.4128	222.4562	209.0894	205.0981	192.4045	184.1889	169.9392	156.1541	144.5048	135.5387	122.9167	113.6926	103.9478	95.8699	89.1955	83.0803	73.8223	69.5588	62.2748	58.1263	52.3705	48.9509	43.7267	38.1416	34.3798	31.7828	28.5552	27.5684	26.6175	23.6919	21.1258	21.0776
558	441.7507	388.2209	294.5116	215.0678	175.5547	321.2557	244.2983	246.8113	254.1535	259.7282	256.1413	244.9837	241.1377	234.4106	232.0517	233.3612	232.9262	232.7831	233.1669	230.8112	228.2399	219.6278	213.2951	203.4293	198.0475	190.3845	181.6184	169.9318	154.0052	141.6554	132.3808	116.9629	108.2635	101.1466	93.1657	88.582	79.2871	73.4327	68.7757	61.4067	56.775	52.3837	46.1287	42.3474	37.4936	34.0434	30.8807	27.8168	25.9635	25.385	24.1147	21.1646	21.1164
560	425.7652	402.4589	299.0697	218.3874	207.0168	290.6168	238.8358	236.867	244.1386	246.9393	248.6317	239.3843	226.9825	230.5815	222.3501	220.3539	225.2858	231.8395	220.3494	221.3266	216.4165	213.1717	204.8415	198.1181	192.3185	186.7293	176.9751	159.6721	147.1112	139.7394	125.5928	115.3527	106.8796	99.0177	92.8057	85.4893	78.9559	70.9793	65.6088	60.1563	55.4279	52.1542	47.8769	41.8676	36.8082	33.3393	29.9363	27.0427	23.9167	27.0219	23.4976	21.1413	21.0932
562	459.621	421.9548	303.6163	237.5286	239.4256	310.4684	244.2194	226.5107	232.4626	233.6539	239.4987	230.4429	223.2782	213.3628	211.2903	209.7932	213.9724	217.0845	213.7979	212.2148	212.6394	206.4582	197.1179	190.2284	183.1069	176.5169	168.5233	156.7234	143.7407	132.0839	124.6134	111.0204	107.0086	94.6349	87.9253	82.1144	77.4109	69.7538	64.3651	58.9126	53.3628	50.5347	45.5547	41.7005	36.0834	32.4239	29.1745	26.2316	23.6077	24.3511	21.4278	20.171	20.1251
564	396.4582	372.6347	308.1655	273.2876	272.7979	270.4241	273.5552	215.7558	219.0884	219.8859	224.7546	223.6521	218.5323	209.7428	209.0605	204.7188	206.3435	209.4121	207.1353	203.7388	201.9826	198.2995	191.0137	185.9568	173.9169	171.4869	162.0539	149.9514	136.9076	126.9131	119.3576	106.5223	101.1768	93.1635	87.0411	82.5868	73.6974	69.6604	62.8019	58.6267	53.0182	48.9625	44.5457	40.3289	37.5243	31.4671	28.3772	25.7165	23.2791	22.4064	23.0518	20.0224	19.9767
566	368.672	369.3014	312.9099	285.6247	261.7469	239.5172	255.4262	204.729	205.3704	216.9887	216.5077	211.4302	207.3602	204.1455	200.8173	195.0881	196.1922	202.6952	199.2296	200.3803	193.7443	186.8136	181.6838	178.3208	168.9844	166.6241	161.3412	146.2809	137.1755	123.1742	112.3512	105.0593	97.2023	89.5111	82.3563	74.8916	71.2491	66.4243	61.0897	55.08	51.7986	45.9421	43.0161	40.3701	36.41	30.4873	27.7287	25.3591	22.9448	20.7319	22.1826	19.7886	19.7435
568	389.7054	393.2727	320.6725	249.9569	189.4622	136.7004	264.7899	193.4052	213.7869	206.9385	208.046	212.6608	200.0754	195.5256	189.0652	191.4852	189.637	189.6576	194.0855	191.2742	183.649	182.1107	173.7078	168.6694	163.629	163.3163	153.1475	142	131.6718	120.5464	110.7588	100.9404	96.6702	87.5025	82.2076	74.9818	70.7121	63.8976	58.2576	51.8204	49.9821	46.6984	42.5796	39.2842	35.7942	29.4821	27.4045	24.9944	22.6037	20.1597	21.324	19.6712	19.6264
570	355.7713	359.6717	342.2145	265.2581	199.4756	166.4735	255.6473	213.0162	203.759	196.4883	199.2301	207.1234	196.1424	185.1047	183.4394	180.6039	181.2995	183.0575	181.0692	184.238	182.3537	174.5441	170.6091	164.9472	157.2032	154.7103	148.6467	134.3571	126.0545	116.6535	106.3644	100.9046	91.8211	84.2246	77.2927	73.1629	66.6299	62.6487	58.3288	54.2895	46.9861	45.0493	41.5022	38.816	35.0882	30.8672	27.0575	24.6661	22.2042	19.5603	20.5319	18.9208	18.8777
572	316.3208	355.6798	330.9656	273.9425	206.6758	197.588	255.9426	203.8401	193.7566	187.1222	190.4693	194.057	184.9876	177.2111	178.1758	177.8157	181.4058	176.2382	176.764	174.3993	173.1871	172.9123	163.1668	157.5412	154.0805	147.6341	142.9881	132.3417	124.0406	113.2052	104.1825	93.6763	90.4148	83.0309	76.0472	72.386	67.2457	61.1018	56.4483	51.9207	46.7981	43.0309	40.3129	37.9242	34.0048	30.4887	26.7443	24.3685	21.7535	18.9742	18.5067	19.2094	19.1656
574	370.0111	347.3089	375.9018	282.7717	227.6981	229.7509	281.2584	231.0112	183.307	178.4347	181.3036	189.7208	176.3556	180.6023	176.0743	168.6031	171.3854	171.495	169.9861	171.7895	166.6113	164.6322	156.9742	153.1272	150.0428	143.2313	138.1646	127.2024	118.0579	108.26	101.5301	93.002	87.3367	81.607	73.9814	68.2476	62.1392	59.4873	54.4081	50.3086	44.466	43.87	38.8059	37.5437	33.3695	29.5177	26.4049	23.9694	21.2746	18.3569	15.3705	18.0118	17.9708
576	349.2839	343.4451	340.5514	291.7415	263.3052	262.9677	267.0754	227.1018	172.4088	169.3576	190.5442	181.0928	167.7711	168.5663	168.0236	163.8673	166.3537	162.5613	166.1669	163.3364	163.4793	157.2959	152.0783	146.4695	145.6626	137.9133	131.9884	124.9815	115.9024	105.6984	97.7804	91.0016	82.2086	79.2755	72.6754	65.6595	61.2948	58.6599	53.445	48.3229	45.3752	40.254	38.6182	36.1131	33.5823	29.5634	26.0388	23.504	20.6771	17.7082	15.1749	18.5861	18.5437
578	368.5189	325.7198	344.8119	300.8521	272.8534	247.0382	228.694	235.5903	161.064	191.4238	175.7884	172.0843	171.8727	162.0879	160.2803	163.4764	165.9488	159.2899	161.0645	161.7519	151.3735	150.948	146.7194	141.5307	137.4501	133.5571	130.0744	121.231	111.5717	101.1831	95.9941	86.7224	81.5663	75.9819	70.2968	63.4426	58.4062	55.9637	53.1503	48.4876	43.0324	40.9363	37.4453	34.5509	31.7964	29.5249	26.8295	23.0101	20.0482	17.3139	14.9644	17.2642	17.2248
580	316.3945	351.5687	313.8559	290.2814	238.1857	192.1793	155.4028	271.0784	195.9285	177.1229	160.4799	162.6992	158.883	158.2139	153.6949	152.9855	153.15	150.683	151.0635	150.5958	150.5478	147.8805	140.893	137.9184	132.4881	128.3415	124.8536	116.1195	109.3573	99.6914	92.0274	82.0804	80.0492	74.4907	68.5436	61.9535	57.8534	53.1252	50.4517	46.7919	43.0239	39.0822	35.0217	33.0076	30.4868	28.0415	25.6369	22.4879	19.533	17.0428	14.7392	14.2776	14.245
582	377.6467	299.0207	322.4696	283.6413	235.7431	193.309	176.6854	250.1753	191.0356	162.3404	147.971	152.9831	155.0591	150.9071	153.319	147.6691	147.8511	150.0187	148.0515	148.1218	144.4298	140.4669	136.471	129.1454	128.1366	125.2019	125.5642	111.4118	102.2299	95.5442	88.2497	80.5274	76.4424	71.578	64.5223	60.9767	58.194	51.1002	46.8676	44.4776	41.13	38.4106	34.9234	33.6351	30.978	27.2468	24.5668	21.9441	19.2912	16.7592	14.5035	12.2623	12.2344
584	371.2169	292.5777	312.0197	302.0379	241.5396	198.258	198.6063	252.6105	204.119	147.0202	138.3553	142.885	148.0647	140.6405	146.1532	148.2231	141.6492	140.1515	144.7666	139.0976	139.3033	139.662	129.5912	128.8415	123.1716	124.722	116.5408	110.3637	100.1575	90.9146	83.88	79.7643	74.1958	70.3563	63.9995	60.6401	53.347	51.5859	46.5794	43.7832	38.6704	37.6361	34.5973	32.1475	30.3325	27.7516	24.2693	21.1656	19.0316	16.544	14.2528	10.4972	7.6912
586	350.6413	296.5832	293.9642	290.0843	247.3622	212.5751	221.1335	268.106	205.0054	131.1435	128.3546	142.9663	140.2916	140.9821	138.2011	140.1702	140.1134	138.9822	138.0664	136.9687	131.9406	135.891	126.7469	123.3707	118.5616	116.4465	112.0734	105.1121	96.1032	92.6486	82.3816	75.9585	71.3786	65.2488	61.7681	57.8116	53.6141	50.3604	46.7911	42.7877	38.3833	36.7342	33.8188	31.0488	28.9565	27.1043	24.734	21.8857	18.7515	16.3113	13.711	8.6699	3.0738
588	314.9259	278.2064	263.1969	280.1035	253.2097	236.7194	244.2615	258.3284	207.2099	114.7214	135.2224	130.4605	132.1973	139.4933	125.8656	133.5327	133.3324	128.208	132.9729	130.6452	131.9519	127.2324	124.4019	117.4565	114.7287	114.7898	108.2433	98.2763	94.5964	87.5954	80.472	74.1159	69.179	63.7079	61.1138	57.4054	51.574	48.1285	44.3626	40.0295	39.0601	36.2857	33.9348	30.1987	28.6419	26.0431	24.7438	20.7711	18.451	15.922	13.0049	6.7814	0
590	291.5401	281.8277	277.9746	292.33	259.1223	242.896	232.8179	230.3226	196.2032	128.0004	123.0229	117.5356	123.8068	130.2953	126.7479	124.7773	127.0404	127.5405	127.7166	125.7851	125.0626	122.8024	123.4013	116.3447	115.9719	110.4787	101.4425	101.1364	91.4017	85.4162	75.5404	71.1542	67.1412	62.3557	56.9666	53.8148	49.7201	46.6468	43.2755	39.4642	35.482	33.7269	31.3968	29.1971	28.6622	26.05	23.0635	21.1592	18.1333	15.2316	11.7107	4.8335	0
592	321.9238	278.1514	290.4749	289.1061	280.0327	230.7169	191.7241	161.5106	205.5435	138.688	110.8232	106.9985	115.5384	121.9434	124.5468	122.8693	123.6697	127.2054	125.6786	119.8977	119.2734	116.9662	114.8056	112.9972	108.4967	107.7147	102.9979	94.9042	86.5566	80.5691	74.0928	68.0154	65.197	60.4569	56.8375	52.4348	49.8081	45.9156	42.0064	37.6131	34.9549	32.3502	30.1742	29.0768	27.0706	25.1062	23.0167	20.7739	17.905	14.5667	9.8392	4.809	0
594	321.0096	298.8454	265.3762	274.4597	303.7299	239.1726	188.401	177.3143	221.1132	142.225	98.1199	98.4869	106.8989	125.5935	115.5449	123.6024	119.6409	114.3979	120.9829	120.133	116.9678	113.8633	108.8177	107.4946	104.1583	102.021	93.5106	92.1661	83.3462	78.8441	74.2637	68.4758	61.4409	58.6594	56.285	48.2623	46.9526	42.8556	38.8664	36.9116	35.3488	33.4456	29.6504	27.9289	26.7701	25.259	23.209	21.0188	18.0843	13.868	8.9189	0	0
596	320.6824	275.2558	244.0553	260.0742	285.6023	224.4881	207.2237	193.6796	218.734	143.0571	84.9513	89.6534	110.9013	117.0286	113.5033	117.844	113.9483	117.9318	118.1115	115.1374	110.4871	114.2368	106.2638	103.3025	103.6493	97.8489	96.401	87.9903	83.2206	76.8112	71.154	66.1805	60.568	57.2436	54.4369	49.1097	44.3175	42.3038	40.0118	35.5057	34.3671	32.5126	28.8366	27.5357	25.9306	23.8073	21.6885	19.1685	17.8994	13.1411	9.9627	0	0
598	272.6608	262.529	255.8068	265.9893	271.2604	247.3123	224.7879	210.6261	231.5386	141.1938	71.3	93.9221	101.9607	108.1324	110.9246	113.5259	108.6238	114.7042	112.4473	111.0629	109.4499	108.6863	105.8045	101.2199	97.9448	97.5397	91.2565	86.9776	78.0394	75.4712	68.4552	61.9023	59.9459	55.2804	50.7352	48.3662	44.9964	41.7376	39.015	35.622	33.5533	30.3314	29.4166	27.8202	25.5126	22.2046	20.6106	19.3853	17.2942	14.3703	0	0	0
600	349.297	270.9559	253.9164	286.1883	299.1394	266.667	242.8729	228.0783	222.3551	145.9344	75.7065	84.7472	92.637	98.8506	105.0098	105.6924	110.7692	106.6769	107.0652	105.5531	107.34	105.2159	100.597	95.5388	98.1416	92.3701	89.4636	85.7397	78.7289	71.9108	68.9471	60.9267	58.7419	52.6932	50.5693	44.8321	42.2751	38.8105	37.0395	35.1218	32.7189	28.1949	27.1591	24.9822	23.726	22.8957	20.3631	19.3067	17.9065	15.4959	0	0	0
