Description	Bog1 (clean blank)																																																				
EEM type	"Dilution- & Scatter-corrected, Calibrated Data (ppb QSE)"																																																				
Scan date	10/1/2010 14:32																																																				
Excitation	240-500nm by 5nm																																																				
Emission	290-600nm by 2nm																																																				
Calibration	Michael_Fluoromax4_April08 (07-Apr-2008)																																																				
Slit settings	"5nm Excitation, 5nm Emission"																																																				
Dilution	60																																																				
Row 1	Excitation(nm)																																																				
Col 1	Emission(nm)																																																				
Data	Fluorescence(ppb QSE)																																																				
																																																					
	240	245	250	255	260	265	270	275	280	285	290	295	300	305	310	315	320	325	330	335	340	345	350	355	360	365	370	375	380	385	390	395	400	405	410	415	420	425	430	435	440	445	450	455	460	465	470	475	480	485	490	495	500
290	1138.1634	1194.3032	1127.7389	930.8502	762.227	613.7341	495.245	401.0951	270.0188	137.8949	0	0	0	0	0	0	0	0	0	0	0	0	0	0	0	0	0	0	0	0	0	0	0	0	0	0	0	0	0	0	0	0	0	0	0	0	0	0	0	0	0	0	0
292	1321.6402	1407.676	1296.0374	1036.4411	860.1785	704.5449	573.8066	431.799	286.8511	150.8902	30.8028	0	0	0	0	0	0	0	0	0	0	0	0	0	0	0	0	0	0	0	0	0	0	0	0	0	0	0	0	0	0	0	0	0	0	0	0	0	0	0	0	0	0
294	1416.6588	1568.8914	1375.6527	1139.9965	956.2299	777.4301	628.0679	461.776	370.1571	157.9912	60.9723	0	0	0	0	0	0	0	0	0	0	0	0	0	0	0	0	0	0	0	0	0	0	0	0	0	0	0	0	0	0	0	0	0	0	0	0	0	0	0	0	0	0
296	1630.5097	1716.4065	1532.7369	1239.7666	1022.6943	831.6049	622.7989	490.3546	427.5541	164.6777	90.3837	1.2485	0	0	0	0	0	0	0	0	0	0	0	0	0	0	0	0	0	0	0	0	0	0	0	0	0	0	0	0	0	0	0	0	0	0	0	0	0	0	0	0	0
298	1817.2517	1995.8669	1717.3358	1417.0373	1077.2247	883.0711	616.6104	517.39	422.4474	170.9145	62.1297	2.4624	0	0	0	0	0	0	0	0	0	0	0	0	0	0	0	0	0	0	0	0	0	0	0	0	0	0	0	0	0	0	0	0	0	0	0	0	0	0	0	0	0
300	2112.4221	2210.7861	1938.8997	1531.4554	1129.938	873.1094	626.3255	543.5003	417.3167	222.458	34.6709	3.6417	0	0	0	0	0	0	0	0	0	0	0	0	0	0	0	0	0	0	0	0	0	0	0	0	0	0	0	0	0	0	0	0	0	0	0	0	0	0	0	0	0
302	2304.4116	2415.2519	2154.5648	1735.9229	1200.3958	877.2711	661.9387	560.8479	418.8707	253.327	8.1333	3.6475	0	0	0	0	0	0	0	0	0	0	0	0	0	0	0	0	0	0	0	0	0	0	0	0	0	0	0	0	0	0	0	0	0	0	0	0	0	0	0	0	0
304	2436.8872	2501.2652	2271.8021	1706.6493	1202.3738	881.4422	697.7204	578.2617	420.4275	258.1092	42.6114	2.4354	0	0	0	0	0	0	0	0	0	0	0	0	0	0	0	0	0	0	0	0	0	0	0	0	0	0	0	0	0	0	0	0	0	0	0	0	0	0	0	0	0
306	2381.0759	2463.7666	2142.7832	1758.3192	1202.1759	885.1717	715.5574	587.6091	421.7745	262.7745	62.1656	1.219	0	0	0	0	0	0	0	0	0	0	0	0	0	0	0	0	0	0	0	0	0	0	0	0	0	0	0	0	0	0	0	0	0	0	0	0	0	0	0	0	0
308	2238.5477	2375.5623	2051.908	1612.6058	1178.8753	888.4551	733.0743	588.8411	440.1854	267.3163	67.0474	-0.0001	0	0	0	0	0	0	0	0	0	0	0	0	0	0	0	0	0	0	0	0	0	0	0	0	0	0	0	0	0	0	0	0	0	0	0	0	0	0	0	0	0
310	2181.0571	2319.0875	1990.5234	1617.1026	1171.4224	815.299	750.6253	590.0743	458.6331	271.8641	88.8296	-0.0001	-0.0001	0	0	0	0	0	0	0	0	0	0	0	0	0	0	0	0	0	0	0	0	0	0	0	0	0	0	0	0	0	0	0	0	0	0	0	0	0	0	0	0
312	2217.7369	2365.2647	1974.7163	1602.7813	1144.9723	835.748	763.506	604.8027	467.3129	274.7439	109.9911	-0.0001	-0.0001	0	0	0	0	0	0	0	0	0	0	0	0	0	0	0	0	0	0	0	0	0	0	0	0	0	0	0	0	0	0	0	0	0	0	0	0	0	0	0	0
314	2081.4572	2235.0236	1922.9892	1550.1655	1071.4957	779.0216	776.2082	619.3444	469.009	276.9189	130.9356	-0.0001	-0.0001	0	0	0	0	0	0	0	0	0	0	0	0	0	0	0	0	0	0	0	0	0	0	0	0	0	0	0	0	0	0	0	0	0	0	0	0	0	0	0	0
316	1977.778	2140.2351	1875.6784	1489.7326	1044.6332	741.289	759.4301	631.5719	469.0842	278.1242	151.1591	22.3569	-0.0001	-0.0001	0	0	0	0	0	0	0	0	0	0	0	0	0	0	0	0	0	0	0	0	0	0	0	0	0	0	0	0	0	0	0	0	0	0	0	0	0	0	0
318	1849.1981	1972.0166	1729.7229	1373.052	961.119	720.3663	704.2135	641.3045	466.8622	286.6884	170.4462	44.1904	-0.0001	-0.0001	0	0	0	0	0	0	0	0	0	0	0	0	0	0	0	0	0	0	0	0	0	0	0	0	0	0	0	0	0	0	0	0	0	0	0	0	0	0	0
320	1713.4621	1828.252	1593.8385	1260.5127	892.6486	660.5297	678.8695	650.6085	464.5529	303.2284	163.7157	65.4989	-0.0001	-0.0001	-0.0001	0	0	0	0	0	0	0	0	0	0	0	0	0	0	0	0	0	0	0	0	0	0	0	0	0	0	0	0	0	0	0	0	0	0	0	0	0	0
322	1560.5005	1596.9361	1396.5473	1188.0405	827.3036	604.2791	623.4677	611.5927	459.9943	317.7897	156.3725	85.8809	17.5248	-0.0001	-0.0001	0	0	0	0	0	0	0	0	0	0	0	0	0	0	0	0	0	0	0	0	0	0	0	0	0	0	0	0	0	0	0	0	0	0	0	0	0	0
324	1383.2087	1473.0882	1316.2826	1082.3922	753.9833	567.9866	564.5504	568.2742	455.3168	307.9369	161.5502	105.534	34.4543	-0.0001	-0.0001	0	0	0	0	0	0	0	0	0	0	0	0	0	0	0	0	0	0	0	0	0	0	0	0	0	0	0	0	0	0	0	0	0	0	0	0	0	0
326	1374.7089	1390.5635	1162.5657	1006.8192	729.1462	510.2897	543.6258	530.0079	450.3197	298.1074	178.5225	111.7155	50.7647	-0.0001	-0.0001	-0.0001	0	0	0	0	0	0	0	0	0	0	0	0	0	0	0	0	0	0	0	0	0	0	0	0	0	0	0	0	0	0	0	0	0	0	0	0	0
328	1204.1218	1222.5598	1123.1851	900.2601	650.9752	489.2515	511.0595	501.1126	424.0494	288.3069	194.6851	117.5471	66.4322	16.1953	-0.0001	-0.0001	0	0	0	0	0	0	0	0	0	0	0	0	0	0	0	0	0	0	0	0	0	0	0	0	0	0	0	0	0	0	0	0	0	0	0	0	0
330	1071.1874	1160.9768	1026.051	830.443	611.9921	457.8267	463.7886	471.7412	412.1143	278.6697	198.3973	127.1448	81.4704	31.7786	-0.0001	-0.0001	0	0	0	0	0	0	0	0	0	0	0	0	0	0	0	0	0	0	0	0	0	0	0	0	0	0	0	0	0	0	0	0	0	0	0	0	0
332	984.3156	997.7295	914.379	746.4685	564.5634	456.4376	428.6248	448.7795	393.5847	266.2992	199.6484	138.7685	93.4607	46.248	-0.0001	-0.0001	-0.0001	0	0	0	0	0	0	0	0	0	0	0	0	0	0	0	0	0	0	0	0	0	0	0	0	0	0	0	0	0	0	0	0	0	0	0	0
334	921.0013	924.7469	855.6256	662.3191	525.1364	405.6098	397.2054	414.2927	362.8031	273.3689	200.4495	149.4377	104.5598	59.7683	20.7846	-0.0001	-0.0001	0	0	0	0	0	0	0	0	0	0	0	0	0	0	0	0	0	0	0	0	0	0	0	0	0	0	0	0	0	0	0	0	0	0	0	0
336	826.7555	794.2554	796.3693	628.1598	456.5094	381.8306	379.4902	394.8251	339.1131	280.6022	201.0058	158.039	115.3189	72.4114	40.2962	-0.0001	-0.0001	0	0	0	0	0	0	0	0	0	0	0	0	0	0	0	0	0	0	0	0	0	0	0	0	0	0	0	0	0	0	0	0	0	0	0	0
338	707.1946	735.8726	653.559	552.5375	462.5255	368.3056	362.1966	355.1344	338.7189	278.9162	201.3378	165.9683	125.7383	96.1491	58.5929	10.9653	-0.0001	-0.0001	0	0	0	0	0	0	0	0	0	0	0	0	0	0	0	0	0	0	0	0	0	0	0	0	0	0	0	0	0	0	0	0	0	0	0
340	670.114	660.0126	625.2194	514.1581	421.356	353.9301	346.3159	360.1669	327.8917	269.1326	213.392	173.0772	135.2651	118.2451	75.6513	38.4738	9.0845	0	0	0	0	0	0	0	0	0	0	0	0	0	0	0	0	0	0	0	0	0	0	0	0	0	0	0	0	0	0	0	0	0	0	0	0
342	632.2101	580.3349	549.8998	493.4658	387.1252	341.6672	335.6975	334	328.0394	266.4262	229.408	180.3467	155.8782	136.3892	91.9682	64.5201	27.2911	2.4203	0	0	0	0	0	0	0	0	0	0	0	0	0	0	0	0	0	0	0	0	0	0	0	0	0	0	0	0	0	0	0	0	0	0	0
344	620.9741	571.0692	522.4417	460.0118	389.5557	327.7624	344.055	335.5776	317.3988	274.5479	229.8659	186.9262	175.1137	150.3416	121.6648	89.0428	46.8581	23.8781	0	0	0	0	0	0	0	0	0	0	0	0	0	0	0	0	0	0	0	0	0	0	0	0	0	0	0	0	0	0	0	0	0	0	0
346	570.853	543.4257	525.2518	454.5851	379.8983	323.0535	341.4814	327.3305	318.7304	283.5339	254.4984	215.6556	193.4767	163.6803	149.8873	112.332	73.4363	39.9837	13.9973	0	0	0.1623	0	0	0	0	0	0	0	0	0	0	0	0	0	0	0	0	0	0	0	0	0	0	0	0	0	0	0	0	0	0	0
348	597.0699	528.1196	506.3673	445.5684	387.9195	326.3538	337.5444	343.2479	319.34	298.4599	268.655	234.4232	211.1469	190.2063	174.0002	134.5863	98.7707	68.4688	33.5801	0	0.3755	0.3165	0	0	0	0	0	0	0	0	0	0	0	0	0	0	0	0	0	0	0	0	0	0	0	0	0	0	0	0	0	0	0
350	579.155	541.6281	468.9047	421.8265	380.1657	338.6352	359.9272	336.478	335.8161	303.1958	286.1716	254.2312	227.6734	215.1891	193.8995	157.644	122.7371	84.9044	55.8279	24.9222	0.7318	0.4626	0	0	0	0	0	0	0	0	0	0	0	0	0	0	0	0	0	0	0	0	0	0	0	0	0	0	0	0	0	0	0
352	588.8818	541.1091	470.7638	424.8138	390.264	353.5539	344.2686	354.0357	342.572	318.3856	308.7964	286.1652	259.5243	238.6728	212.5747	179.3633	145.3605	111.4252	79.0182	43.9553	1.069	3.1223	3.0321	0	0	0	0	0	0	0	0	0	0	0	0	0	0	0	0	0	0	0	0	0	0	0	0	0	0	0	0	0	0
354	566.3612	518.8595	494.2311	437.9761	382.6497	356.5744	364.7806	368.764	358.9363	337.2311	324.7216	301.3589	286.7414	260.6152	231.9475	199.7142	176.8411	145.6432	98.8782	61.3928	26.7018	8.0933	5.9018	0	0	0	0	0	0	0	0	0	0	0	0	0	0	0	0	0	0	0	0	0	0	0	0	0	0	0	0	0	0
356	589.6452	578.1664	514.1993	439.8171	412.9175	376.7864	371.8105	378.6818	370.704	351.2986	340.3106	334.0876	314.6082	281.9832	260.7716	239.431	217.2768	178.47	126.0365	80.4781	43.4635	12.8306	8.6388	0.8275	0	0	0	0	0	0	0	0	0	0	0	0	0	0	0	0	0	0	0	0	0	0	0	0	0	0	0	0	0
358	576.1225	572.0517	509.552	456.5543	434.1028	394.8207	394.2403	392.5206	389.6933	372.3915	361.8532	365.6886	351.1813	324.7913	298.6951	277.9775	256.7752	210.274	154.2619	110.3332	70.2729	17.3845	7.5693	1.6196	0	0	0	0	0	0	0	0	0	0	0	0	0	0	0	0	0	0	0	0	0	0	0	0	0	0	0	0	0
360	660.1418	616.5736	542.0541	484.6293	453.3313	419.7797	409.4988	410.0708	405.2986	393.6205	390.3678	393.6993	375.4635	354.1372	334.7733	314.9818	294.4057	240.5606	190.5717	135.5345	86.4108	41.1991	6.5387	2.3763	0	0	0	0	0	0	0	0	0	0	0	0	0	0	0	0	0	0	0	0	0	0	0	0	0	0	0	0	0
362	685.6602	603.0306	560.1828	537.1505	473.4236	453.8266	434.7911	427.6595	430.1965	422.2745	410.3359	416.3343	413.1835	396.6163	371.619	352.7521	324.2564	275.9692	226.7549	163.659	107.5586	59.3586	5.5858	6.6325	4.9496	0	0	0	0	0	0	0	0	0	0	0	0	0	0	0	0	0	0	0	0	0	0	0	0	0	0	0	0
364	736.7984	656.7551	623.9504	561.1623	508.5388	470.5175	477.8127	454.6948	454.1785	453.5328	450.1571	460.4775	454.5022	429.3432	415.205	389.2414	353.0621	319.5419	261.763	195.2419	134.5653	84.1068	35.6551	14.2134	9.7446	0	0	0	0	0	0	0	0	0	0	0	0	0	0	0	0	0	0	0	0	0	0	0	0	0	0	0	0
366	824.4998	742.0128	646.8463	584.6038	535.7965	503.1599	484.1253	482.2506	483.0256	481.4464	487.5284	486.9093	482.6017	480.7322	454.7351	424.7969	390.3498	361.9654	295.8363	227.6298	160.3157	102.2854	60.711	21.5691	14.3968	2.5576	0	0	0	0	0	0	0	0	0	0	0	0	0	0	0	0	0	0	0	0	0	0	0	0	0	0	0
368	843.2234	776.4188	691.7184	641.9509	576.6009	545.0566	523.8143	510.5819	511.0662	513.0928	514.8896	526.0471	528.3526	512.382	491.5715	459.5172	431.2925	394.4843	328.2815	259.1919	194.92	122.8381	76.9607	28.7181	15.362	5.0411	0	0	0	0	0	0	0	0	0	0	0	0	0	0	0	0	0	0	0	0	0	0	0	0	0	0	0
370	894.6635	814.3383	726.7062	669.1525	605.952	573.6489	552.7207	554.0556	548.4017	535.1465	549.5329	563.9779	575.6094	564.8423	542.6925	509.308	470.927	425.9298	358.138	289.7648	221.2688	153.5892	96.5557	50.0313	16.2925	7.4502	0	0	0	0	0	0	0	0	0	0	0	0	0	0	0	0	0	0	0	0	0	0	0	0	0	0	0
372	967.0479	873.7268	800.0893	732.1227	655.5973	618.9632	594.585	583.2927	577.098	586.3294	592.9525	611.315	619.9157	611.799	593.6694	552.6703	511.8874	457.1174	388.9908	331.4604	260.4089	179.763	120.0696	73.3068	17.2764	12.6742	6.1901	0	0	0	0	0	0	0	0	0	0	0	0	0	0	0	0	0	0	0	0	0	0	0	0	0	0
374	1043.4569	943.7473	832.2919	785.5631	709.5291	670.3465	640.2654	615.1546	622.2484	627.4167	638.5449	651.0342	672.9047	662.4819	647.9719	605.8616	552.0024	497.4157	440.1389	382.7201	298.7841	212.0006	145.5199	92.6787	44.8027	20.6043	12.2575	0	0	0	0	0	0	0	0	0	0	0	0	0	0	0	0	0	0	0	0	0	0	0	0	0	0
376	1153.0753	986.3318	910.8679	826.6541	760.9306	697.1609	674.3272	658.5409	653.4679	662.2934	675.0661	697.2134	718.7149	705.8542	686.6081	651.5622	599.75	546.8564	489.8544	423.3412	336.0973	244.4658	172.7931	112.3947	65.603	28.3489	18.1861	3.8696	0	0	0	0	0	0	0	0	0	0	0	0	0	0	0	0	0	0	0	0	0	0	0	0	0
378	1200.0301	1081.7361	984.1297	880.1105	823.5382	760.1808	733.5876	708.7399	704.961	702.7776	720.6689	742.4271	762.4517	773.3574	750.2553	706.2284	652.0977	594.6517	537.9855	462.6252	372.2375	283.9043	201.5766	139.4718	88.4993	35.8872	20.8674	7.647	0	0	0	0	0	0	0	0	0	0	0	0	0	0	0	0	0	0	0	0	0	0	0	0	0
380	1272.3709	1178.2799	1016.865	942.3625	888.0225	810.5128	786.3581	752.1694	744.774	750.0212	769.8733	803.2599	826.5161	814.1226	805.8286	764.9763	709.6073	641.2244	575.7421	499.1194	407.4576	322.3804	233.094	163.4733	109.5035	61.6387	23.4785	11.3321	0	0	0	0	0	0	0	0	0	0	0	0	0	0	0	0	0	0	0	0	0	0	0	0	0
382	1374.5632	1244.8036	1091.504	1012.6818	917.7823	874.5218	809.1144	786.3742	778.2205	787.8688	819.7129	852.2545	867.4163	870.8671	857.6086	820.4598	759.1503	689.7409	615.2952	535.3307	449.4099	361.5407	270.0629	192.0321	134.1227	82.6347	26.138	16.5984	6.2591	0	0	0	0	0	0	0	0	0	0	0	0	0	0	0	0	0	0	0	0	0	0	0	0
384	1394.9072	1262.9893	1187.7921	1054.0198	992.09	906.3828	871.6202	838.8709	825.9605	832.5638	869.5362	900.5436	922.9767	930.3225	915.8262	867.8001	808.5623	738.7787	654.2243	570.969	490.7297	400.1131	305.2236	224.5437	156.2112	100.2459	45.7259	23.3751	12.4216	0	0	0	0	0	0	0	0	0	0	0	0	0	0	0	0	0	0	0	0	0	0	0	0
386	1489.1837	1357.3633	1202.4362	1092.5919	1033.0289	943.2093	917.3532	865.3499	861.3462	867.6012	907.4362	946.8761	975.2538	978.22	957.4762	922.4324	862.7442	787.8339	695.1456	613.9828	532.1263	439.7414	341.1225	257.0638	183.4557	122.8201	70.627	30.1563	18.5561	4.053	0	0	0	0	0	0	0	0	0	0	0	0	0	0	0	0	0	0	0	0	0	0	0
388	1546.3512	1409.3731	1299.4642	1175.4665	1091.0045	1018.1679	940.1573	915.0901	904.7141	905.5439	947.2561	980.6097	1026.156	1025.4103	1008.7444	967.3477	910.5532	835.7932	738.5583	659.1764	574.1021	477.9578	378.1781	288.9123	210.3627	146.4139	88.4088	37.0185	21.7421	8.1023	0	0	0	0	0	0	0	0	0	0	0	0	0	0	0	0	0	0	0	0	0	0	0
390	1662.3589	1485.3542	1369.4472	1258.9056	1135.1908	1065.1177	995.403	971.1463	945.149	956.4343	993.972	1025.1985	1088.3289	1078.8065	1072.15	1029.6245	973.1182	896.2941	804.7753	704.4143	616.1126	516.1989	415.2555	321.373	249.0227	173.44	110.9333	59.3802	24.925	12.148	0	0	0	0	0	0	0	0	0	0	0	0	0	0	0	0	0	0	0	0	0	0	0
392	1699.6573	1583.7087	1405.6244	1298.246	1191.4638	1100.21	1043.6056	999.0006	1004.3725	985.443	1026.4905	1078.4404	1124.2799	1138.7809	1123.805	1088.0631	1022.2096	955.2058	853.196	745.1553	651.1919	551.12	456.9989	362.0779	276.4924	198.8516	128.1199	77.54	27.9375	17.7487	6.6705	0	0	0	0	0	0	0	0	0	0	0	0	0	0	0	0	0	0	0	0	0	0
394	1797.841	1643.844	1476.3213	1335.8432	1252.8124	1135.9581	1088.386	1055.3826	1007.9542	1024.9687	1074.6506	1117.8741	1172.7134	1192.3709	1181.2476	1142.5098	1088.269	1007.3215	905.7441	785.3778	693.5451	600.7323	504.0149	402.2967	307.1926	226.2402	154.5784	95.1629	47.8634	24.9214	13.2558	0	0	0	0	0	0	0	0	0	0	0	0	0	0	0	0	0	0	0	0	0	0
396	1864.9927	1703.3326	1512.0911	1395.6168	1291.6863	1223.6537	1156.3764	1073.5659	1059.9735	1076.9559	1105.8411	1168.7056	1220.0763	1244.807	1247.3359	1204.8539	1154.3862	1062.2157	961.9045	841.0094	744.2324	650.7761	548.2306	442.7174	343.0524	259.133	175.9645	112.7605	65.7713	32.0502	19.7864	3.6003	0	0	0	0	0	0	0	0	0	0	0	0	0	0	0	0	0	0	0	0	0
398	1926.1558	1763.5569	1590.1812	1495.1854	1373.4541	1267.8829	1160.3553	1130.0115	1116.8962	1112.8765	1167.981	1224.0791	1281.1358	1308.5136	1303.2442	1271.244	1208.5437	1130.3017	1017.5555	911.0892	795.7438	698.3012	592.9917	483.5386	382.6713	295.3997	208.2475	133.1723	85.7401	39.1685	21.5183	7.1759	0	0	0	0	0	0	0	0	0	0	0	0	0	0	0	0	0	0	0	0	0
400	2097.1556	1829.9186	1664.0266	1536.1343	1418.1029	1311.909	1240.4836	1170.5838	1154.6944	1157.0873	1203.7756	1271.5239	1326.6163	1362.1353	1359.9761	1325.3552	1271.2598	1193.1389	1084.3532	967.5834	846.9935	743.9789	634.3907	524.226	422.072	326.2096	236.9812	155.0958	103.885	56.6053	23.2376	10.7267	0	0	0	0	0	0	0	0	0	0	0	0	0	0	0	0	0	0	0	0	0
402	2120.6165	1923.9234	1714.7455	1625.4139	1497.8279	1382.1233	1284.9911	1208.4386	1190.4637	1198.7815	1253.1142	1319.346	1382.407	1405.256	1416.6126	1386.272	1337.4646	1251.877	1134.2516	1032.4348	895.3103	788.0375	674.3868	563.8942	460.4556	361.6476	263.1478	182.5439	119.033	73.8137	24.9017	15.0788	5.2106	0	0	0	0	0	0	0	0	0	0	0	0	0	0	0	0	0	0	0	0
404	2264.4107	2009.7568	1832.9971	1659.5953	1560.5718	1459.7842	1328.3501	1248.7472	1258.4201	1249.2365	1280.6647	1358.6702	1426.0179	1453.2996	1476.6808	1441.4063	1390.608	1303.7713	1195.3162	1086.0086	956.0251	831.6776	714.1833	603.1853	498.4763	394.0637	297.7873	208.5286	138.669	90.3146	42.1478	20.2314	10.3674	0	0	0	0	0	0	0	0	0	0	0	0	0	0	0	0	0	0	0	0
406	2231.6605	2113.9377	1908.4242	1725.4208	1624.2353	1475.9032	1380.577	1302.1896	1299.4264	1266.3149	1321.5428	1401.536	1463.4739	1512.1007	1529.81	1501.8927	1440.5022	1370.0576	1258.2199	1144.6989	1021.5764	876.5607	755.1135	642.1571	535.1964	426.9658	324.7681	235.1271	157.5646	107.2033	57.8907	25.3769	15.4994	2.5608	0	0	0	0	0	0	0	0	0	0	0	0	0	0	0	0	0	0	0
408	2388.7965	2171.8233	1984.4702	1777.2548	1677.0394	1536.2482	1444.5054	1358.448	1330.2088	1319.832	1359.8792	1436.4732	1519.2264	1565.8591	1577.699	1561.112	1512.5142	1437.5368	1326.3883	1208.4676	1073.2929	927.2558	797.3331	682.2042	568.8957	460.5481	355.3996	260.988	180.5682	124.6279	79.6421	30.5445	16.2565	5.1137	0	0	0	0	0	0	0	0	0	0	0	0	0	0	0	0	0	0	0
410	2402.225	2254.3267	2043.3008	1869.1507	1735.0918	1600.0935	1497.1447	1406.3423	1351.0097	1366.3904	1396.5406	1478.6846	1551.5228	1610.2247	1634.6571	1625.5703	1582.2917	1501.7223	1382.9494	1261.2234	1135.7443	988.3447	839.4954	718.2265	602.5363	498.9609	389.7848	292.2313	211.8232	140.3304	92.2289	49.1807	17.0112	7.6587	0	0	0	0	0	0	0	0	0	0	0	0	0	0	0	0	0	0	0
412	2410.9283	2256.6468	2057.4091	1948.8329	1792.1923	1658.5386	1523.9331	1432.3822	1403.9493	1393.3324	1448.3182	1510.1566	1587.7214	1652.7957	1684.9026	1686.906	1624.8839	1548.3206	1450.1658	1328.379	1188.23	1046.7622	881.6682	757.2808	646.023	542.2444	424.1415	323.9013	234.338	161.9524	111.378	67.4018	17.7647	11.9169	5.0204	0	0	0	0	0	0	0	0	0	0	0	0	0	0	0	0	0	0
414	2628.2548	2340.2299	2119.6729	1977.715	1878.2428	1699.5478	1584.9706	1497.3532	1436.3574	1431.4907	1460.8713	1558.2696	1633.7182	1687.2554	1735.5128	1723.9355	1676.9805	1605.9864	1503.6154	1376.3842	1249.725	1091.5084	939.9244	801.3	689.4595	576.4893	458.4443	348.8341	253.4	180.9481	126.5368	80.8827	38.7588	17.8811	10.0266	0	0	0	0	0	0	0	0	0	0	0	0	0	0	0	0	0	0
416	2631.2758	2401.2058	2184.9274	2042.2544	1910.8119	1764.0427	1639.3524	1524.9045	1477.459	1473.4297	1519.7027	1581.3724	1674.2931	1731.27	1774.1208	1778.7499	1742.2128	1675.6738	1562.3341	1440.9454	1299.339	1155.9345	996.644	847.2217	734.5366	612.0835	493.8235	376.6581	277.546	205.4482	143.1353	92.0663	56.5042	23.8826	15.0527	3.0322	0	0	0	0	0	0	0	0	0	0	0	0	0	0	0	0	0
418	2663.9395	2414.3766	2237.2236	2114.4217	1948.969	1796.55	1670.3395	1576.0692	1510.6948	1498.8854	1533.5247	1611.5946	1680.5822	1768.3739	1817.124	1827.6336	1796.1472	1738.1113	1626.825	1501.1063	1357.7838	1203.6655	1046.9366	895.3665	772.432	649.2729	531.4523	410.0841	308.306	228.249	157.7332	111.2012	68.859	29.9622	17.1137	6.083	0	0	0	0	0	0	0	0	0	0	0	0	0	0	0	0	0
420	2734.5826	2542.5561	2317.2631	2172.5821	2000.7675	1853.3214	1723.2396	1620.1151	1567.6536	1543.3816	1577.6624	1659.7877	1741.3319	1803.943	1865.8943	1880.5319	1847.9054	1783.5562	1686.4627	1564.3272	1414.35	1256.5943	1100.6956	943.8911	811.553	688.6115	567.7576	443.7539	336.7612	252.6706	179.8593	123.1193	84.8053	45.8952	19.1869	9.1523	0	0	0	0	0	0	0	0	0	0	0	0	0	0	0	0	0
422	2781.6789	2608.401	2416.9561	2245.4729	2071.9789	1920.4132	1775.4256	1649.695	1570.7932	1568.7582	1594.9271	1677.1802	1766.9863	1836.1868	1885.8014	1926.1186	1896.7905	1859.0882	1740.7765	1628.7136	1475.7358	1307.9094	1149.5008	1000.3078	852.1243	728.4265	599.3776	477.7831	358.1342	271.9728	199.173	139.0069	98.8368	60.7436	21.2774	13.4645	5.0162	0	0	0	0	0	0	0	0	0	0	0	0	0	0	0	0
424	2846.7007	2564.3595	2396.0183	2268.141	2139.9671	1959.3454	1808.7996	1684.4064	1613.2783	1608.4575	1626.54	1706.498	1786.1158	1874.0429	1918.2485	1964.2888	1943.1372	1890.6948	1795.7844	1669.674	1522.2802	1364.6413	1192.4248	1038.2746	893.0156	763.4096	631.2348	512.0743	389.7068	298.3865	221.9523	154.6507	113.387	74.0514	37.0923	19.0304	10.0658	0	0	0	0	0	0	0	0	0	0	0	0	0	0	0	0
426	2879.7626	2641.1891	2491.7057	2283.207	2194.3963	1993.1847	1858.1114	1714.2326	1662.4881	1599.6205	1652.9698	1726.975	1823.7446	1901.4921	1969.8466	2004.9539	1988.2593	1947.7268	1857.5869	1714.2213	1570.5778	1413.4726	1244.5516	1084.0076	935.7659	797.3769	667.3163	544.7756	422.2058	322.8388	241.0865	170.826	125.2829	87.5578	50.9988	24.6727	15.1731	3.1023	0	0	0	0	0	0	0	0	0	0	0	0	0	0	0
428	2953.349	2682.2788	2518.8132	2343.1279	2241.6717	2042.3523	1910.6767	1756.7242	1678.9035	1655.6835	1678.0766	1733.6965	1844.9887	1930.8379	2014.9794	2037.3604	2055.3201	1999.3678	1902.8061	1775.5462	1630.5063	1462.5019	1299.8157	1135.557	986.7352	833.0422	704.9166	573.2198	455.7836	346.4623	261.9031	194.3911	141.861	99.7931	64.2641	30.4181	17.4325	6.2448	0	0	0	0	0	0	0	0	0	0	0	0	0	0	0
430	2971.134	2741.9623	2550.9011	2390.6198	2260.2432	2090.7297	1956.9821	1801.6435	1721.7831	1683.9169	1712.2571	1772.8845	1868.608	1956.1945	2034.3525	2069.5097	2079.2836	2038.3638	1966.272	1842.6631	1681.5395	1509.6585	1341.0547	1166.2756	1027.6215	869.1544	737.4169	602.0184	489.8057	376.642	285.0543	212.5078	157.2448	112.4471	77.5238	41.7667	19.7197	9.4275	0	0	0	0	0	0	0	0	0	0	0	0	0	0	0
432	2999.9566	2735.6887	2580.4863	2425.9886	2318.3646	2103.6801	1956.4143	1841.2242	1741.9014	1690.6476	1723.7011	1804.2252	1887.6448	1980.6969	2048.522	2101.3915	2117.4744	2084.923	1992.5438	1883.0987	1725.8219	1561.8499	1378.2349	1213.2223	1066.2854	904.7064	766.6557	636.5924	522.6104	406.7675	306.0321	233.4034	174.9179	125.4642	91.3573	56.5079	22.0106	13.2367	4.3918	0	0	0	0	0	0	0	0	0	0	0	0	0	0
434	3025.9778	2794.7771	2628.8302	2478.7049	2337.3949	2189.981	1998.1712	1863.5996	1776.3601	1723.2824	1729.2504	1809.8695	1892.414	1980.897	2079.9232	2131.9578	2151.8539	2120.5793	2035.7309	1914.5082	1774.6778	1603.4462	1423.3345	1256.2012	1107.9239	954.7655	796.1974	671.5478	553.5976	437.2268	329.1345	248.5578	192.3965	139.1644	101.0734	70.518	34.9424	17.6892	8.8301	0	0	0	0	0	0	0	0	0	0	0	0	0	0
436	3006.3313	2873.2797	2694.9757	2477.631	2382.7671	2202.295	2042.2652	1888.2394	1800.0769	1736.3614	1756.3206	1821.9925	1917.2686	1997.1905	2093.9254	2154.5401	2168.367	2157.4326	2077.5454	1956.504	1799.8968	1635.1952	1460.6102	1291.7577	1141.485	988.8106	827.1185	705.5983	585.6778	468.6252	349.7993	271.0583	207.1834	151.5846	115.4125	80.2288	46.618	22.2162	13.332	2.9264	0	0	0	0	0	0	0	0	0	0	0	0	0
438	3057.9344	2935.3699	2751.0312	2532.1591	2398.7811	2233.2379	2072.4249	1924.5875	1818.1628	1768.8464	1786.6482	1841.5527	1920.6739	2018.2526	2104.8399	2181.5957	2202.5835	2188.5705	2117.0302	2012.7857	1850.2949	1684.6385	1507.6108	1331.4954	1181.2574	1023.5661	859.5234	736.4654	612.0712	490.7052	373.8201	289.4222	225.5187	170.332	125.9526	90.222	58.1287	26.8348	15.8822	5.8981	0	0	0	0	0	0	0	0	0	0	0	0	0
440	3130.3403	2878.0053	2690.3472	2605.9655	2444.9592	2283.9834	2117.073	1950.7773	1845.4544	1780.5578	1789.2999	1843.5827	1931.158	2025.4733	2130.1665	2215.2295	2236.8327	2217.374	2153.4962	2043.5102	1902.814	1727.1658	1536.113	1355.5109	1204.8107	1062.6116	894.3719	757.2992	631.8772	508.6787	398.1926	309.1341	243.2422	185.6217	139.058	102.2608	70.8546	40.4221	18.4701	8.9152	0	0	0	0	0	0	0	0	0	0	0	0	0
442	3129.4889	2872.4291	2754.2126	2598.3007	2489.4892	2299.1482	2116.2706	1975.8503	1858.2883	1788.7966	1788.8846	1851.2162	1947.7438	2033.6572	2164.1254	2226.1032	2253.3216	2235.3892	2186.785	2063.328	1929.0129	1763.5789	1572.7027	1393.09	1240.9769	1092.2227	924.5952	777.7758	651.422	524.6112	422.5888	326.461	260.4821	203.7564	153.4776	116.7118	81.1402	52.6598	21.0794	12.9986	4.6539	0	0	0	0	0	0	0	0	0	0	0	0
444	3082.7447	2943.1307	2764.2066	2605.8983	2551.3656	2350.2752	2131.6057	1997.4477	1868.0811	1784.1823	1816.9654	1857.257	1939.1201	2052.2665	2147.5177	2219.0733	2267.7205	2254.1165	2194.2018	2103.3086	1963.3647	1782.4952	1598.5656	1423.6789	1263.2582	1117.2689	952.8646	798.4776	669.3172	540.7233	447.3048	346.781	278.0194	217.7773	169.396	125.1292	92.9433	61.7364	36.0595	18.1743	9.3715	0	0	0	0	0	0	0	0	0	0	0	0
446	3163.1997	2915.0596	2780.7159	2651.56	2518.6292	2345.032	2154.0632	1988.2164	1891.5534	1818.5504	1827.4633	1867.5191	1952.8244	2037.1168	2141.4016	2223.3163	2266.8732	2258.3577	2214.2884	2115.9721	1987.6973	1813.1506	1639.7808	1454.8224	1298.0958	1152.0716	981.5148	819.9427	686.9133	566.7076	467.8123	367.6009	297.7228	235.5141	181.9509	139.2372	103.8229	72.439	46.5524	23.4345	14.1622	3.1693	0	0	0	0	0	0	0	0	0	0	0
448	3077.9828	2933.8582	2770.4513	2632.6377	2540.1992	2357.0112	2191.1543	1998.9727	1908.4482	1831.3009	1831.1011	1860.1603	1950.322	2047.0862	2140.9074	2234.9816	2277.257	2294.8197	2240.0035	2149.4238	2008.3223	1830.8003	1666.3676	1475.0386	1317.456	1174.7068	1008.9708	847.734	705.1651	593.4279	479.1487	388.9574	314.1237	247.9173	198.687	148.2567	112.3901	84.4693	54.228	28.7892	16.9878	6.3894	0	0	0	0	0	0	0	0	0	0	0
450	3056.3783	3014.619	2817.9871	2686.5071	2573.3288	2366.1387	2209.5052	2012.7276	1911.9607	1836.4669	1826.3823	1859.3861	1960.6475	2049.2283	2146.4884	2232.7895	2283.9508	2297.0863	2254.9992	2160.8745	2034.4939	1874.3464	1670.318	1501.0701	1339.3323	1192.8217	1033.6891	869.8402	723.6327	610.708	490.6105	410.625	333.1026	264.0695	213.6389	166.5282	123.7122	94.6751	67.0971	41.6334	19.8565	9.6603	0	0	0	0	0	0	0	0	0	0	0
452	3103.4251	2976.8656	2824.397	2684.5252	2574.9968	2388.558	2219.7171	2040.1378	1900.7863	1834.8457	1828.8837	1868.349	1962.5884	2038.7793	2131.4515	2224.5389	2277.9097	2295.5028	2262.7001	2169.1124	2053.6727	1887.1968	1686.4238	1522.8818	1366.9806	1214.9979	1048.6857	888.3211	742.6628	623.5334	513.5327	432.0477	352.519	282.1745	229.6679	181.8058	136.3424	102.6407	77.1374	47.3731	22.7788	14.1738	5.2	0	0	0	0	0	0	0	0	0	0
454	2974.7862	2972.3664	2759.4455	2631.4534	2549.1196	2374.0076	2209.2491	2042.3637	1931.4616	1837.0354	1825.3092	1887.6729	1943.8029	2027.3737	2130.1822	2224.3505	2269.185	2296.4267	2245.2266	2184.8813	2053.3686	1887.6561	1698.945	1533.9238	1384.1767	1237.9559	1082.9954	913.5046	758.9121	636.4927	536.7883	452.2557	372.2261	296.3425	244.8835	195.5797	149.3884	113.6427	89.3844	61.6488	39.5401	19.9569	10.4867	0	0	0	0	0	0	0	0	0	0
456	3016.8503	2945.3322	2788.1178	2690.6375	2579.3167	2419.4919	2208.3095	2057.1347	1936.8066	1841.0271	1837.6041	1871.9244	1955.3583	2012.2967	2113.0238	2217.1401	2258.8076	2294.3916	2257.4416	2173.4984	2066.4981	1904.348	1712.4174	1546.2593	1394.075	1250.0561	1091.8744	934.606	776.1603	650.599	559.6952	473.4853	392.8317	307.4419	257.4023	204.5916	158.0961	124.2146	96.9012	70.4509	45.3532	25.8734	15.8844	3.5354	0	0	0	0	0	0	0	0	0
458	3044.2978	2913.8742	2813.3009	2680.7113	2602.3153	2403.1846	2239.5125	2063.8459	1951.8154	1850.7809	1828.347	1869.1074	1948.2329	2020.2098	2098.8718	2199.4676	2263.1084	2279.3255	2263.0505	2180.7885	2071.2454	1910.5653	1723.6092	1562.8507	1415.3465	1261.0212	1104.455	952.1533	796.0039	665.8906	579.4209	488.5372	403.39	322.3821	273.0966	221.5727	175.3653	137.9105	105.6434	79.9672	56.368	31.9499	18.9636	7.15	0	0	0	0	0	0	0	0	0
460	3139.4454	3008.9223	2761.3237	2680.4038	2586.7792	2423.1669	2252.5541	2079.8795	1956.7989	1856.5398	1840.961	1871.9983	1932.7164	1988.6508	2080.8539	2173.3948	2247.1303	2278.1673	2249.4302	2187.2345	2077.2314	1915.0005	1735.1263	1565.65	1423.3132	1271.6706	1120.009	962.8002	814.2963	685.8058	588.371	496.4511	410.7321	337.5857	286.3845	230.2504	189.3803	146.8957	113.6136	88.2869	63.9498	41.9895	22.1072	10.844	0	0	0	0	0	0	0	0	0
462	3039.6252	2913.4721	2773.7789	2668.0916	2594.2167	2439.4612	2262.5285	2093.6161	1983.6811	1865.8758	1839.095	1851.4386	1915.2495	1985.6083	2077.3454	2191.1782	2236.6331	2260.3174	2249.7662	2174.0285	2072.8036	1918.7851	1743.5902	1577.533	1437.4247	1296.1377	1131.5244	983.2428	835.6302	705.8438	598.0407	504.9812	419.3284	353.4412	296.3288	247.7268	201.3958	162.4161	124.8781	100.409	74.9498	52.7276	25.3429	15.6939	5.5567	0	0	0	0	0	0	0	0
464	2957.6557	2853.101	2757.1779	2675.2674	2590.4792	2430.3545	2250.8539	2082.9712	1953.5181	1845.6373	1846.0629	1865.0904	1913.9579	1964.3181	2067.7532	2149.02	2203.531	2259.12	2238.1629	2169.5634	2050.8675	1920.6625	1734.5403	1577.228	1435.9685	1296.188	1152.2723	991.2878	842.9571	715.6061	607.7744	514.3044	428.0139	369.5873	307.983	257.466	211.6688	172.9445	135.3344	106.2689	84.033	60.846	38.2234	21.7302	11.2464	0	0	0	0	0	0	0	0
466	2914.9714	2841.5416	2770.8373	2688.2144	2611.6652	2418.48	2292.0255	2097.5184	1961.7536	1893.7389	1839.4266	1841.9261	1889.1577	1949.2888	2055.0771	2127.5669	2188.8923	2213.0594	2206.5878	2161.2709	2050.6073	1904.4573	1745.2888	1577.4941	1435.3155	1301.0395	1155.0603	1009.9991	856.1954	741.1663	617.7635	524.2399	445.2626	382.0578	319.9321	271.1713	220.7012	182.5549	147.3661	116.6662	91.649	71.0593	47.8832	27.9138	17.0747	4.1932	0	0	0	0	0	0	0
468	2871.3935	2804.9932	2730.825	2630.0238	2607.4241	2422.9818	2253.7489	2101.1049	1971.8641	1857.1775	1836.2464	1837.5932	1877.0707	1938.4266	2017.484	2094.6814	2186.6988	2208.4234	2186.4323	2145.5643	2044.7211	1898.5024	1744.3795	1581.0221	1451.6367	1318.9254	1166.0692	1008.2424	864.3997	746.8961	640.7688	534.4304	462.9529	386.5707	332.1841	285.3115	230.2833	192.9003	158.2346	121.9958	102.964	79.24	56.8586	34.2502	21.358	8.4894	0	0	0	0	0	0	0
470	2825.9515	2766.365	2690.2433	2617.2022	2552.0072	2432.684	2248.2448	2091.0868	1964.9539	1856.4312	1816.1086	1798.8878	1873.1609	1921.2476	1990.6255	2075.0908	2142.9165	2177.4286	2179.2163	2114.6256	2022.678	1897.4366	1735.938	1582.7197	1445.9785	1317.6166	1163.2489	1018.9314	878.4077	758.4306	646.7731	544.7154	472.5832	391.0802	344.6435	294.0767	246.2844	202.2694	167.652	132.4263	108.7501	86.3787	67.4447	45.9654	25.7402	12.8886	0	0	0	0	0	0	0
472	2785.7007	2803.4974	2654.908	2628.559	2528.1954	2421.4929	2244.0251	2072.0558	1964.9427	1840.0414	1796.1213	1812.7107	1843.4469	1879.236	1961.7923	2055.1461	2106.9653	2132.088	2141.5124	2085.9475	1995.4569	1866.7742	1714.2977	1567.2656	1436.6772	1308.87	1175.7871	1025.4758	888.1751	770.9139	658.1064	556.4251	479.2219	405.223	357.0973	303.6929	254.6106	214.183	177.4486	144.8744	116.7799	95.4193	74.2301	54.5725	30.293	18.3251	6.2202	0	0	0	0	0	0
474	2743.1863	2743.0088	2632.4237	2584.1957	2500.4149	2381.3482	2246.5894	2086.4592	1923.667	1831.3037	1818.9853	1794.2793	1819.9644	1853.5105	1934.6826	2010.6878	2069.8568	2103.3635	2111.6544	2074.9911	1976.2417	1859.8542	1695.1062	1554.0712	1430.1974	1307.413	1165.8916	1022.4034	886.321	775.3734	674.1552	566.644	485.8572	419.6146	367.6075	313.4651	264.1391	220.8574	187.6782	151.276	123.4024	100.7431	83.166	62.3667	39.5768	24.8167	12.6175	0	0	0	0	0	0
476	2695.8002	2703.198	2612.9759	2580.3206	2466.3177	2336.1484	2205.3422	2045.6534	1933.3769	1809.6873	1767.9841	1764.5287	1794.8072	1840.6682	1910.127	1975.9566	2029.1676	2076.4669	2061.0799	2024.8257	1944.5736	1823.8358	1689.275	1535.5343	1430.3245	1295.488	1162.0774	1028.657	890.9523	781.0258	676.9778	572.1465	492.0362	431.6788	377.9271	323.0969	266.8457	233.2068	193.9438	162.751	130.4272	105.8756	87.2673	68.9128	51.1009	31.4548	19.1746	4.3373	0	0	0	0	0
478	2643.8095	2658.9289	2554.7688	2554.8359	2484.642	2323.8577	2197.294	2037.3814	1913.0447	1802.2302	1737.005	1755.7425	1776.0562	1812.3154	1874.5176	1950.2389	2013.6721	2039.3914	2030.0562	1992.0682	1915.9295	1798.2014	1661.5021	1525.4839	1404.0508	1303.2921	1160.5059	1027.2658	899.6383	770.6683	678.6696	580.0576	497.7589	440.6593	384.5145	327.2594	274.5244	243.6194	201.0826	169.1799	139.1968	116.749	94.7704	76.8424	57.9158	38.2223	23.128	8.7786	0	0	0	0	0
480	2589.9359	2612.9168	2530.0438	2555.4625	2469.2152	2334.0943	2183.1908	2005.6953	1925.0573	1785.1623	1754.3718	1742.8144	1743.1884	1768.2642	1823.6736	1913.5186	1948.5729	2010.9961	1996.0538	1969.4072	1890.8284	1773.8502	1651.9227	1523.263	1402.7199	1291.5506	1165.5125	1033.6777	891.8521	786.8237	689.4406	589.8399	509.0587	444.4097	387.584	330.1333	282.3111	246.2201	211.7017	176.1146	147.3611	119.911	99.8775	83.5138	65.5733	46.2025	27.1697	13.324	0	0	0	0	0
482	2528.6436	2559.5479	2511.2297	2453.5009	2441.2074	2280.1773	2129.9332	1996.4111	1892.5773	1783.6664	1733.3399	1694.8069	1716.1925	1749.4902	1796.39	1869.649	1910.522	1959.7079	1961.2783	1930.1474	1867.2746	1749.6494	1626.1394	1504.0024	1394.3725	1285.3036	1163.9609	1032.5557	896.1961	794.3446	691.5624	593.5077	516.7929	447.1942	389.8074	333.2956	289.6035	250.3518	218.8763	183.6631	153.9498	125.3496	107.5876	91.7743	70.4557	52.7269	31.2352	17.8662	5.1316	0	0	0	0
484	2465.8922	2504.8184	2489.7651	2428.3464	2353.8178	2276.3956	2150.2646	1983.4693	1858.8981	1764.9114	1716.603	1696.251	1697.9499	1717.8483	1782.4406	1824.6753	1878.0439	1911.3477	1928.6611	1890.3684	1827.8507	1730.928	1604.6998	1487.2812	1386.3151	1273.6963	1147.9575	1019.4004	887.1419	784.4073	690.3688	595.9787	530.1926	449.9508	393.009	336.4582	296.9848	256.1408	222.6264	188.7168	161.1416	131.7414	113.802	94.7261	76.9435	58.2591	39.0678	22.4218	10.3614	0	0	0	0
486	2401.1989	2448.2347	2439.6516	2404.5913	2374.2044	2257.348	2146.0255	1975.2037	1845.448	1743.5537	1694.3146	1681.6435	1681.8048	1688.7776	1732.5792	1797.3933	1853.2468	1877.632	1883.6149	1852.4728	1802.272	1705.9726	1592.6538	1465.267	1371.1842	1265.69	1148.0102	1021.6513	893.3402	784.4726	697.1782	605.2997	534.3351	452.5899	396.6312	344.2242	302.5237	261.944	228.4844	199.3768	166.7115	141.046	118.4031	101.7989	82.1217	64.5501	46.0188	27.0552	15.6863	3.0335	0	0	0
488	2334.6339	2389.8595	2387.8301	2385.8842	2328.2823	2228.2982	2080.4207	1967.0581	1843.8592	1711.0655	1677.4878	1655.8443	1660.3749	1658.7367	1700.7994	1763.4299	1830.4438	1848.9185	1849.0555	1823.2716	1757.9802	1670.4287	1570.0447	1447.4784	1354.6153	1256.6575	1147.9921	1013.8912	895.5683	791.8982	691.8919	604.8981	535.6733	460.3146	400.1753	352.0086	304.2773	267.7594	236.7644	205.0882	171.981	145.7998	119.8632	106.2467	88.658	68.9592	53.7781	31.7638	17.6726	6.1212	0	0	0
490	2266.726	2330.2255	2334.83	2282.9028	2325.7914	2187.5468	2084.6105	1958.0067	1811.4236	1705.6245	1645.4241	1645.6631	1621.8872	1630.8551	1666.8779	1724.3472	1772.6303	1793.5281	1800.0976	1791.4942	1730.5202	1641.6694	1531.0572	1429.6119	1336.1371	1242.2523	1130.9315	1009.9914	880.8071	788.7891	692.3741	604.0729	537.8226	468.6594	403.7198	356.075	306.0142	273.6376	240.179	207.9542	178.0064	150.1745	126.5038	110.5267	93.1457	74.5472	56.3029	39.922	19.6917	9.2632	0	0	0
492	2199.6825	2271.5656	2282.9429	2285.7871	2251.3115	2177.1901	2065.1202	1895.3329	1784.0587	1684.6923	1623.2852	1589.0285	1599.051	1595.8819	1628.8094	1685.9151	1750.5035	1774.0479	1768.4624	1750.9611	1700.9827	1638.2254	1504.8778	1412.0006	1324.8159	1232.7076	1119.0059	1008.7093	881.5213	787.9837	698.0578	604.4482	542.0603	469.1834	407.6547	358.5822	312.5259	279.8442	243.1995	213.3149	182.4009	156.2313	132.4559	113.346	98.0958	81.0612	60.696	43.0881	21.764	12.9235	4.1626	0	0
494	2131.1382	2211.4598	2229.7408	2241.444	2242.1606	2152.8066	2019.5939	1889.8004	1766.4852	1662.0829	1597.9454	1581.958	1572.8536	1564.8753	1609.5186	1655.5078	1708.7069	1731.4127	1725.13	1718.0184	1674.5146	1584.1783	1491.3278	1393.2287	1298.1327	1212.8025	1105.2407	989.5923	873.5491	783.5538	696.7152	610.7041	544.4225	477.0866	415.9663	361.0712	319.1073	282.1748	246.2336	218.5839	185.0607	162.3447	138.8978	115.645	99.0313	83.7853	66.6746	49.9005	30.1922	17.1095	8.4058	0	0
496	2060.4558	2149.279	2165.6672	2189.1377	2180.0626	2131.9534	2019.3604	1855.1158	1750.3548	1643.7874	1586.2181	1543.9131	1529.771	1537.0019	1563.163	1597.9281	1657.2575	1684.5338	1691.1855	1675.7452	1621.1534	1550.311	1449.7931	1363.061	1281.9973	1185.3973	1089.5579	974.3385	865.2008	777.6037	695.4677	607.9864	541.4787	478.1522	418.5161	363.4312	323.6747	282.4216	249.2055	217.2919	189.8007	164.0527	142.3557	121.5918	102.2229	87.674	70.2517	54.4469	34.2902	21.367	12.7259	2.6079	0
498	1987.7392	2062.2901	2100.0933	2134.9522	2162.851	2060.8315	1980.2879	1839.3746	1734.1834	1602.2426	1557.0957	1536.1314	1518.8575	1488.9018	1530.0219	1564.871	1606.187	1639.647	1647.036	1634.9657	1578.5496	1525.521	1424.4158	1339.6787	1259.9515	1184.9607	1083.336	969.7881	867.5105	766.255	688.853	605.8643	533.5059	475.8479	422.6111	365.6629	324.1689	282.5405	252.1146	218.6516	194.5207	168.963	149.6261	123.7607	103.811	88.4997	75.6353	58.344	39.758	25.6923	14.6952	5.262	0
500	1877.6445	1987.5482	2033.2409	2079.6145	2114.2045	2013.0736	1919.2504	1813.7622	1694.7111	1598.123	1532.3536	1497.9845	1474.2941	1458.1046	1478.4359	1529.578	1569.6661	1590.6886	1602.481	1581.2318	1553.9293	1482.0709	1389.2491	1316.685	1236.4564	1167.6695	1065.3096	954.6591	855.9591	760.7864	682.0761	600.1588	536.0364	476.9796	425.1411	373.0525	324.6216	285.7311	253.3876	220.0015	196.7677	173.9318	148.8237	128.4846	107.6392	92.0591	78.347	60.1536	43.8823	32.9935	16.6973	7.9624	0
502	1891.9536	1910.8722	1966.9916	2022.5019	2064.9507	1991.1132	1891.2267	1768.7926	1646.7088	1558.5309	1503.4872	1474.4499	1443.1996	1429.8066	1452.3725	1487.6107	1520.7517	1544.333	1546.4908	1537.2005	1509.6082	1443.2917	1363.6883	1278.6917	1224.683	1137.8634	1048.5219	940.834	844.4678	749.8675	675.5911	600.6841	537.733	480.9755	421.4472	372.2134	324.9359	288.8471	251.2429	221.2758	198.8079	176.8111	153.062	134.4972	111.7348	94.204	80.2524	65.0194	48.3027	38.0544	18.7263	11.3274	5.187
504	1834.0953	1832.9297	1902.061	1964.3041	2033.9638	1972.2401	1861.3273	1723.7842	1617.6873	1514.9812	1474.1926	1433.4517	1389.5246	1395.7217	1411.2914	1435.8565	1466.0157	1487.0179	1505.8036	1500.1506	1460.9793	1404.9055	1324.6547	1252.0729	1178.9565	1119.9085	1030.9542	927.547	827.2858	744.0872	668.9684	587.5479	532.4349	467.3345	422.2611	370.5326	325.2101	288.6226	249.0275	222.5408	196.0377	178.4532	153.8781	137.1662	114.3031	92.9577	84.2441	67.3502	51.7583	40.4365	27.1324	15.3742	10.4612
506	1903.7305	1755.8771	1838.2367	1925.0094	1960.2493	1923.393	1824.844	1692.4478	1586.5168	1502.5632	1442.6801	1413.0986	1375.2347	1341.7446	1362.691	1401.2314	1439.4964	1441.5935	1445.088	1449.9568	1418.7893	1361.7717	1294.4043	1213.4157	1157.3075	1089.75	1009.184	916.8518	812.5538	734.0389	659.4217	582.4749	523.3359	473.4761	414.2648	369.2659	325.8283	287.0035	250.7935	224.0594	196.4718	176.6887	157.767	138.6299	121.341	95.9557	83.1741	72.0126	56.0148	44.6038	34.4653	19.5096	15.8412
508	1579.9007	1679.3729	1788.4841	1860.0706	1887.3461	1858.583	1776.1985	1660.4161	1563.8746	1494.4619	1396.1837	1370.6754	1346.2702	1322.9894	1330.5025	1358.3835	1382.7179	1406.2592	1407.9945	1398.4805	1381.5668	1323.0871	1260.6719	1183.813	1130.7745	1072.8822	986.9896	897.4547	798.3594	723.887	652.354	576.0822	513.9618	461.1436	414.4983	373.0817	327.6144	285.637	252.8434	223.7994	197.1086	179.9226	160.982	142.6574	125.6257	98.4747	86.0766	72.4263	58.7069	46.3653	37.2882	23.7477	21.3455
510	1548.5096	1614.6649	1714.1121	1793.5587	1812.7511	1842.7794	1725.5754	1630.4448	1509.1331	1433.5358	1364.2744	1334.3989	1304.4656	1268.9422	1289.8259	1312.5974	1332.2532	1358.8929	1376.0871	1360.3608	1330.2652	1290.2702	1224.856	1158.9026	1100.5214	1048.9848	971.7793	885.9134	787.7325	701.6249	639.3756	569.8147	514.1631	456.1642	410.8694	370.5876	323.8133	284.1794	253.8479	222.4596	197.7158	176.6258	161.9472	143.4723	125.814	103.5669	82.7508	73.3833	61.7683	50.8027	39.3628	29.3874	26.962
512	1515.9748	1566.5134	1637.8796	1717.2328	1736.2544	1739.7085	1691.5403	1571.5398	1488.3576	1407.1148	1335.0772	1311.1382	1263.2527	1235.7454	1247.8635	1268.1213	1281.5916	1310.4837	1314.6587	1319.5617	1294.9828	1251.5605	1188.921	1123.6579	1081.2259	1030.4728	933.0781	864.603	765.768	695.3195	627.0261	559.2612	502.2106	453.0032	405.9886	362.201	325.8129	282.5937	252.6985	221.0171	198.2681	176.125	163.6329	143.9892	127.8115	107.1028	85.7397	71.2547	63.7583	54.3084	41.9443	32.7613	32.6866
514	1482.513	1622.6957	1560.0411	1631.2065	1658.1281	1709.6167	1647.9393	1559.9874	1448.4088	1349.7403	1291.3602	1270.4284	1233.8771	1211.8999	1210.0591	1228.1056	1260.863	1279.0237	1290.2941	1276.1009	1267.5346	1210.2479	1152.2971	1093.3101	1049.3515	996.4876	920.9398	839.9095	755.7636	682.3878	623.8523	551.0129	495.0903	449.4876	405.5474	362.7278	323.4288	287.3773	251.4742	221.7575	197.7204	175.5782	162.5152	147.3483	130.1342	108.7763	87.491	70.899	62.8222	55.53	44.8927	36.7844	36.7005
516	1449.2738	1570.1644	1481.7867	1544.7033	1616.8752	1646.6909	1592.8748	1485.0763	1435.3611	1329.5567	1281.6923	1242.2202	1199.3223	1177.109	1173.0181	1187.3041	1214.0314	1222.1395	1222.5256	1227.9994	1214.7768	1175.148	1111.6733	1064.9024	1023.8562	967.3134	912.0469	823.5245	737.0045	672.1036	601.4183	541.6756	492.1692	438.3626	393.6561	358.1337	319.5366	281.608	250.3672	222.6391	195.1092	175.1194	160.968	148.4679	129.5388	112.0879	93.2189	68.2395	62.1145	57.233	48.1139	38.1258	38.039
518	1416.1426	1408.7162	1402.9031	1490.2565	1572.2741	1583.4676	1563.2885	1465.9322	1375.8753	1299.543	1250.7195	1223.6334	1161.7924	1139.0558	1143.8199	1141.328	1165.0303	1201.1884	1186.4424	1190.9094	1164.9346	1143.6761	1089.3952	1037.2123	991.8071	944.4152	877.3996	806.8722	722.8198	646.9496	590.0881	527.2204	478.5374	432.1182	390.8265	351.6709	318.1112	281.9531	249.3687	221.4494	192.5442	174.7433	158.2445	145.3505	131.1228	113.4988	94.4562	70.2549	61.2445	58.4943	50.9224	39.6848	39.5944
520	1381.9395	1280.7693	1331.6182	1438.4026	1526.3419	1518.5859	1525.8788	1404.9859	1348.996	1276.8227	1202.9365	1175.3149	1123.1021	1104.2242	1105.8427	1109.0568	1145.7326	1153.1582	1157.3268	1156.3643	1133.1424	1105.4778	1047.7034	1011.688	969.2811	925.2419	857.6781	785.4512	705.7258	640.8133	577.3973	518.6746	475.5456	420.454	387.5621	347.4853	309.4813	278.9615	248.2836	219.0591	192.3098	174.3139	157.2265	142.082	128.0571	114.1173	95.2678	72.8723	57.2205	59.6615	51.3543	40.388	40.2961
522	1346.5812	1254.5162	1344.522	1385.0517	1465.9131	1451.9621	1464.6308	1377.3703	1323.2198	1230.9613	1171.8992	1141.6199	1107.3575	1064.3515	1073.5461	1077.7872	1086.1945	1103.8571	1112.5466	1113.1831	1090.0205	1055.7227	1026.0982	984.1937	932.4245	893.7625	834.1198	763.8485	694.4729	621.5993	569.4583	504.6788	463.7765	419.157	379.0721	340.5311	307.4059	275.8325	247.9908	216.5468	192.0097	172.8307	156.1363	143.01	132.8539	116.6746	98.5493	75.5488	54.2201	55.1251	50.8905	42.2754	42.1791
524	1310.1682	1227.4055	1349.3626	1330.3168	1390.7933	1383.7224	1419.7337	1352.3885	1292.3653	1184.7034	1155.1565	1107.2866	1069.3479	1045.2143	1025.2636	1052.1795	1055.5099	1065.6697	1079.0597	1075.3609	1068.7617	1031.7325	993.555	951.2216	909.1519	878.4947	816.0023	746.5491	663.4227	614.2305	556.3057	493.8671	456.2331	406.4818	371.7331	335.9191	297.5441	272.2461	243.6455	213.9267	191.155	170.7731	154.9843	140.8256	128.2299	113.2986	98.7021	80.6917	54.0392	52.212	50.6129	45.6584	45.5543
526	1273.5877	1200.2704	1336.7105	1275.0913	1314.8811	1343.8859	1359.6996	1292.1055	1260.0834	1157.3917	1102.2116	1068.7352	1038.5145	1007.9429	1001.434	1000.1714	1017.092	1038.6542	1043.576	1042.4112	1024.9255	999.1692	958.7345	919.5112	882.3661	853.0957	790.8787	730.6062	658.2567	597.4026	538.8345	486.032	445.9466	405.3217	363.8344	332.0824	297.5329	268.9934	244.5353	211.3418	189.3506	168.7442	153.8744	138.9325	127.1555	114.0664	99.3768	81.4433	58.2609	47.7665	49.8444	43.8227	43.7227
528	1236.7357	1173.0271	1271.5544	1219.2365	1279.9283	1300.2767	1298.9869	1262.4611	1215.5757	1123.9872	1080.7707	1049.6103	997.5596	983.4774	973.2314	981.5999	981.7378	1009.5246	1003.8353	998.6472	1000.191	973.7001	930.5652	898.4015	869.2399	829.2688	775.0869	707.4281	644.4003	584.3424	529.1676	478.5427	434.6108	400.9233	359.3875	324.9186	293.1036	265.0004	238.9876	210.3329	187.5806	167.8654	151.9613	137.0513	126.6746	112.1887	98.7521	85.6083	61.4983	43.5393	47.8663	45.119	45.0161
530	1198.7001	1144.8204	1109.9808	1189.4023	1229.7593	1255.3285	1236.6113	1232.7702	1178.3056	1118.7971	1069.8799	1027.0538	976.0161	934.0949	928.8015	950.4863	956.5529	953.3295	966.4584	973.1225	962.9264	935.313	907.5742	856.4112	828.2679	798.1169	763.3181	693.1479	623.8536	571.5349	519.7228	461.3832	425.5688	384.898	350.7485	318.1035	287.7666	256.0461	235.6664	206.5968	185.7143	166.9173	148.2605	135.0856	124.6833	112.9443	97.5602	84.6824	68.7527	41.8361	42.8963	47.9206	47.8115
532	1159.6646	1115.8244	939.8483	1164.2804	1178.347	1198.1152	1172.7677	1184.1376	1137.8792	1079.1571	1021.011	992.0044	958.3765	922.504	905.9487	913.36	924.0513	924.3802	928.3665	943.4354	931.6635	908.4394	864.2975	835.1729	812.6605	779.8132	731.0372	670.5565	617.8226	551.9201	511.7543	455.0146	417.8806	381.2581	340.3248	315.1788	281.9143	254.7842	231.9984	202.2732	183.7786	164.2147	144.4522	133.0554	121.2701	109.0365	98.9565	86.0682	69.623	42.8724	36.172	44.75	44.6481
534	1119.4416	1085.8596	957.7518	1126.7585	1125.5016	1128.1455	1107.2659	1143.8074	1118.9363	1041.9674	996.2972	965.6512	922.1298	874.0565	882.1303	892.4444	881.8469	912.2186	909.6578	900.9781	889.4731	878.5145	842.3591	811.9447	785.1783	752.2709	714.7444	653.6364	591.2543	541.0452	497.998	447.2551	404.7028	374.4931	340.5243	305.5189	278.6342	252.3395	230.4582	205.6947	181.7454	160.5372	142.5084	130.9398	119.056	108.9453	95.6693	84.696	72.4863	51.596	29.9687	40.7087	40.6161
536	1078.6027	1055.4827	976.3341	1095.3639	1071.7949	1057.0061	1086.9693	1096.6706	1063.9082	1015.3487	962.8496	926.4602	898.3956	862.3453	847.6588	858.8576	860.3332	859.6794	872.8004	883.0815	869.0449	860.2472	821.4011	789.5334	764.3831	731.7755	695.0021	636.8363	582.4169	524.3451	478.6502	432.5436	397.961	360.0338	325.7572	299.5804	271.0043	246.8881	229.2094	197.0919	174.3975	156.8103	140.5521	128.3475	116.8173	107.8945	97.0582	84.5968	70.8963	56.1833	27.4274	35.2957	35.2154
538	1037.0676	969.0169	995.6072	1064.9764	1017.1299	1058.1328	1045.856	1048.712	1035.9284	979.5166	934.9127	891.2903	860.6457	833.0536	821.4335	823.469	833.5325	836.6417	840.1532	844.2621	845.1797	821.2334	799.4041	766.0952	746.1058	715.3429	667.3234	620.9728	558.8587	513.1767	467.9504	424.7445	388.8733	355.5996	318.4919	297.3948	264.8108	241.3537	218.4933	194.4903	176.0151	153.0253	138.3486	125.4874	114.5486	103.9442	96.0926	81.7835	70.9982	59.4312	31.1945	28.651	28.5858
540	994.2499	988.738	1015.0654	1034.4317	1042.7292	1012.6014	1003.4662	999.3343	1009.5185	952.3485	912.859	888.1982	842.3913	802.2246	787.345	800.5067	810.2831	815.6496	818.3709	817.7769	808.8686	791.5916	768.2693	738.5927	718.6104	692.0943	649.2872	599.0916	547.6077	501.2728	459.5513	410.9655	378.0196	343.2582	320.0039	290.0669	262.5953	238.5441	214.8123	188.9459	168.802	149.0989	135.5834	122.5173	112.188	101.4727	95.5461	83.1047	72.1707	60.4016	37.1043	18.5019	18.4599
542	952.418	946.6466	918.9382	892.8956	1014.6897	968.0308	957.7153	950.805	981.3932	932.0798	873.9666	860.682	813.7936	787.0158	773.5966	782.3038	789.0597	787.4618	790.2859	800.1774	788.4264	767.2659	743.7102	726.7111	695.0009	673.9135	641.0188	584.8318	526.9801	489.2785	448.7857	407.5212	369.8065	340.3594	308.8319	285.7699	250.7463	233.2689	212.322	186.9604	170.2376	145.8851	133.019	120.5062	110.0811	99.1406	91.6905	84.245	69.9856	62.3342	46.7058	15.3055	15.2707
544	975.9882	881.4511	779.4805	691.3896	977.7139	921.8464	905.8955	900.572	951.3611	915.3064	865.5739	821.3927	796.4925	758.4145	731.6404	754.854	760.7676	761.5578	764.3452	767.1294	757.1655	746.4301	717.6597	696.55	683.5299	656.0993	615.0233	572.3613	519.5749	474.4268	438.2701	392.9891	355.6587	332.1955	305.2416	275.1985	248.4075	226.5982	209.7026	183.5895	162.5834	149.9298	130.3246	118.3864	108.049	96.6995	89.1176	82.9228	69.3414	59.8361	48.9937	21.6714	21.6221
546	1040.5922	911.6208	779.6414	728.275	972.0383	873.5711	851.8678	892.1532	910.4026	880.0715	841.0326	804.3552	773.1375	732.6366	716.3159	724.0584	734.9637	738.8965	755.9961	729.991	730.1429	716.9915	696.2962	679.8223	655.1621	638.5347	598.0989	552.1924	500.2828	462.8187	428.6308	383.6701	352.0368	317.8025	293.9604	267.5234	246.1592	220.1195	203.475	178.094	162.7505	145.8611	127.4306	116.2771	105.8568	94.0977	82.8491	80.8813	69.9006	61.6269	50.867	28.0691	28.0052
548	1034.3638	881.8431	751.7615	765.5369	934.0404	823.3188	865.63	860.8819	867.5949	836.8077	810.3386	783.2686	748.3007	715.9392	695.6682	698.3552	705.5121	711.7927	707.1939	711.5379	709.9743	696.6662	667.0645	656.0497	630.9023	613.4766	578.3195	535.8695	488.0801	451.3013	415.8371	374.987	339.5663	313.9762	285.3816	258.6715	237.053	212.5643	201.7094	179.8013	160.7042	141.4433	124.3446	114.0991	103.2794	91.3417	81.5224	78.8929	69.422	59.7435	52.0079	34.7373	34.6582
550	970.1812	851.0489	757.4452	803.5686	895.666	862.7732	832.2351	828.5668	823.4858	824.1675	795.5828	762.9186	726.574	688.6155	681.88	674.6195	680.5606	681.9262	680.3829	681.38	690.0828	667.5243	647.577	634.3923	613.5837	593.8434	564.0733	518.8309	471.0507	438.2596	400.9384	365.8074	329.574	308.1704	278.0675	252.2463	232.8385	213.7495	193.1447	174.3184	160.4219	144.547	126.9947	111.8281	100.6023	89.1475	80.1349	74.8995	70.0904	58.5135	51.4316	43.2879	43.1894
552	953.6267	821.5849	800.3008	844.7848	880.7476	849.7213	800.0575	791.8225	780.3077	777.3492	754.7886	742.3054	702.2109	661.0758	649.1806	657.5917	656.498	661.4679	667.9261	659.0243	658.0267	652.6378	632.4136	607.884	599.9485	583.5329	548.5565	502.0769	466.6942	427.8241	389.7329	349.5535	321.0172	297.9545	275.7471	244.7538	227.2694	208.6341	189.1406	171.2131	153.5617	137.8618	122.8543	109.7718	98.4343	87.4496	78.9081	70.0181	67.4941	59.0251	51.5295	43.4874	43.3884
554	1008.9599	790.8672	792.0332	790.7517	787.7686	800.8991	766.5611	747.9016	735.5217	756.5891	734.3753	690.9159	673.9727	643.0397	632.492	631.1737	631.9328	631.9221	642.0671	639.7607	635.3544	622.0095	614.4881	590.1776	570.2543	559.0183	524.037	490.1401	447.2421	412.2913	375.4369	347.509	316.6158	288.0436	265.3598	242.253	219.8206	197.3156	180.8967	167.6158	146.7165	133.4956	121.7533	107.6012	96.8316	85.6589	77.6068	68.098	65.2486	59.0604	52.6639	45.3317	45.2284
556	942.7898	846.3458	701.8164	578.3338	472.2608	833.5109	732.0233	702.6604	739.2609	736.3733	703.4985	681.8875	652.271	626.0959	611.8145	619.5002	610.889	618.0281	617.1105	625.4067	618.4307	605.2978	593.202	570.5639	562.9708	541.2472	517.98	481.718	437.6615	404.8123	367.1262	333.7987	305.8701	280.8119	254.1267	239.3282	211.0796	194.9875	176.1386	163.674	149.1734	132.333	119.0043	106.9112	95.1717	84.4729	75.9723	66.1134	62.61	57.6161	49.9296	44.951	44.8486
558	934.2518	873.5909	716.7203	582.89	545.8232	829.0052	696.3984	730.7171	733.991	715.4758	681.7124	657.5388	617.1963	588.9308	593.4584	581.7886	593.7066	587.2201	592.3484	595.8398	587.153	586.0841	563.3333	547.7886	533.69	524.5215	502.4782	464.1482	427.1506	391.3075	356.5027	321.2069	294.7297	269.4305	250.054	232.1723	208.135	191.6786	175.1794	155.6212	145.2106	129.0048	118.2941	105.0298	93.4512	83.2417	73.6975	64.0608	58.2084	57.5842	48.6144	44.3016	44.2006
560	906.1119	927.4047	713.8872	579.1319	621.653	813.6563	750.696	725.1028	728.2102	693.614	658.961	631.0108	607.3081	577.7688	573.6445	567.6055	564.03	566.7472	582.3656	573.1438	569.6208	558.0119	552.6138	526.6602	523.0613	503.4996	478.0296	446.9673	412.9701	371.4089	345.4398	318.1735	291.5897	263.032	243.0891	223.3961	204.2226	187.6192	170.7089	151.4701	137.7906	126.451	118.2662	105.5211	91.6338	81.3515	71.3182	61.9151	51.9768	57.4946	48.8683	44.6264	44.5247
562	931.6237	913.6594	710.6054	618.4411	699.7417	842.859	759.7043	718.9505	714.2564	670.7603	637.449	612.4394	590.1386	553.0293	542.2982	548.9421	539.1583	548.284	552.9482	546.5197	550.1161	543.0372	522.137	506.5263	502.1468	488.2229	462.1191	431.7453	393.7735	358.3701	333.7345	304.5201	280.2291	257.4589	235.2941	220.5882	201.3859	179.2033	166.1281	151.658	133.5133	123.2536	108.6905	100.5475	89.7154	79.0678	69.2324	59.6735	51.6518	52.5575	46.8452	43.857	43.7571
564	910.7538	813.7784	706.9096	703.0032	780.1396	840.6215	806.3563	712.2961	691.8447	646.9514	612.5619	585.288	565.7477	529.599	524.0339	529.8217	527.0834	528.7637	534.7928	526.4641	519.737	520.5206	500.7431	488.6937	483.1471	473.3485	440.8751	416.3784	373.4456	346.4324	319.3389	294.3787	271.8091	246.8538	227.3189	208.9057	189.6331	176.7308	159.7315	144.6492	130.1562	118.8433	107.0039	99.1782	89.9583	76.6815	67.0542	58.0549	51.2944	49.5347	48.6097	42.9089	42.8111
566	822.5428	876.8231	703.2336	722.1993	736.6554	743.7087	808.2022	705.5763	668.9119	657.1755	604.1442	570.5625	539.5194	518.2969	503.3558	494.4005	501.7173	513.1968	512.2168	508.1342	508.0243	494.8747	486.7706	473.2233	465.0144	453.0851	427.3897	399.4262	370.1299	344.2568	306.8001	284.3244	258.7834	233.0559	223.7663	200.6968	185.274	169.0584	155.0111	137.9053	129.2998	117.8031	105.2747	97.6918	85.715	74.2379	65.1846	56.7617	50.9356	46.461	48.4251	43.6087	43.5094
568	794.9326	875.8092	840.9261	739.4208	651.5191	572.0335	868.4489	698.7588	713.2673	653.35	595.5621	546.8678	518.0929	493.6832	488.5918	489.9428	482.5163	490.9473	490.799	490.5619	477.0775	473.7931	467.6317	456.4084	451.7985	439.2589	416.0352	387.3047	356.8036	331.7531	301.9074	276.263	252.9912	234.9289	215.2112	198.9852	177.3636	162.3054	151.4102	133.9117	123.3407	112.2463	102.587	95.2088	81.8532	71.7303	64.0014	55.4371	50.5734	45.3856	44.7914	40.9563	40.863
570	835.5123	820.9625	826.4069	780.6584	739.8797	692.6226	905.1937	777.2666	710.257	649.0936	586.4329	521.6212	504.9346	472.4065	473.6679	468.9767	469.6535	472.0646	463.9293	468.5171	467.4695	459.6651	444.7869	433.7111	430.687	425.7433	401.9778	364.5138	338.997	314.3541	287.6298	262.3656	246.2239	226.5201	205.6321	191.467	172.4985	159.727	148.2215	132.1096	121.0007	109.0679	99.8065	90.9018	84.682	71.9016	62.7514	55.11	50.0475	44.2555	44.5856	41.7789	41.6838
572	914.891	912.3367	896.3253	937.3605	884.841	819.0379	922.2832	834.8533	708.3552	644.159	578.0019	505.6689	483.9416	464.9064	456.4693	440.5662	444.4002	447.6101	447.1401	455.4207	450.6541	447.0933	427.9551	422.094	412.3352	401.0757	385.8697	356.4252	327.6745	308.2328	281.5533	253.3604	234.4123	222.2597	200.9781	186.6111	170.1324	156.0129	142.8043	129.1991	117.5055	106.4094	94.9594	91.5038	81.807	71.3138	61.5657	54.8646	49.3266	43.1627	39.2977	39.5236	39.4336
574	1029.8836	1030.1149	1043.6551	1100.0898	1031.2097	950.087	976.6957	857.5195	705.9704	637.0081	568.9447	491.0968	448.6915	450.1189	431.3664	432.1154	435.9198	435.6934	428.4346	431.2019	429.2531	423.8107	414.3689	401.2968	394.2392	393.3071	365.5566	338.3604	321.3935	294.6581	276.384	245.0008	230.5999	205.9298	192.5426	177.0089	166.7774	149.4149	139.625	122.0776	112.3611	105.4639	94.4266	85.4305	76.6068	70.5942	60.3036	54.312	48.5523	42.0073	35.3054	39.2083	39.1191
576	1361.6619	1407.8963	1266.6232	1268.9647	1178.7919	1085.838	1023.4258	926.3979	703.0922	629.2456	588.4099	483.795	448.9091	438.4778	436.3514	417.1065	412.0416	419.7116	422.3439	417.4301	421.6469	406.8684	406.4668	391.3739	394.5317	379.9473	359.7864	336.2476	309.3702	282.1259	262.5491	240.8697	216.9578	206.7221	192.0284	171.8669	157.4853	150.2463	133.2465	121.0584	107.6638	98.3205	92.6668	84.7968	74.2985	67.9971	58.9641	53.5738	47.4477	40.7887	34.9691	37.0291	36.9448
578	1722.2615	1788.8507	1703.4909	1444.1257	1267.2314	1108.0796	988.8887	984.9595	699.7213	681.0749	552.4319	475.9817	428.7181	411.7143	405.5268	392.2245	394.9813	413.6959	407.1628	400.0996	397.4181	397.5264	385.4039	379.8334	372.8101	367.3346	350.1852	323.9928	296.8059	274.341	253.768	230.8205	212.2377	195.799	182.3551	167.6797	154.0071	140.6301	132.7427	114.1885	107.4546	97.8198	90.7181	81.0153	72.6107	66.6539	60.232	52.7811	46.2801	39.8347	34.6022	36.4069	36.3239
580	2142.6481	2211.3979	2094.0633	1766.9487	1446.6601	1166.3544	944.4014	1053.2981	783.9996	647.5388	515.0497	467.6646	413.7727	397.4606	391.3665	395.0526	384.9975	391.0525	386.6194	380.3202	385.2443	382.0111	370.6525	360.2394	359.1269	347.0772	341.7679	317.9184	290.6166	263.6541	249.45	223.3649	211.3609	197.0185	176.1392	161.8834	153.3243	137.2175	127.8005	115.564	104.1091	94.3798	84.9753	79.7437	71.9254	65.3554	60.0853	51.935	45.2163	38.9953	34.2052	34.1297	34.0519
582	2399.7347	2399.7178	2246.1266	1940.1227	1543.8959	1200.0383	1003.9969	1099.0176	843.1053	612.8293	492.1175	458.9788	413.503	383.7529	372.8462	372.2321	374.9114	371.2045	378.1404	382.0661	373.0505	369.2399	362.7272	349.4557	352.4325	342.3075	324.1527	303.9766	278.1385	259.5217	242.558	217.0376	198.4316	187.6447	171.3547	155.5593	142.0594	131.6087	119.6489	109.2796	101.6883	91.8508	83.3811	77.7841	70.1522	63.7088	58.1161	51.0504	44.4457	38.1203	33.7879	29.4895	29.4223
584	2437.7571	2562.98	2360.9457	1966.8266	1527.0074	1181.196	1065.1582	1124.65	866.1877	576.744	484.1676	449.7808	385.123	363.6717	370.0719	356.9868	361.3724	357.2895	355.1772	361.2026	361.0404	359.1063	340.7643	338.6303	337.9688	324.282	310.7088	288.1005	268.7151	244.7963	233.2501	207.0146	192.9839	177.0555	166.4986	151.8534	137.6855	131.6236	120.9387	106.0365	94.6217	88.9075	79.8046	75.7745	69.3981	62.8927	58.1375	48.5326	43.6276	37.7406	33.3401	25.5245	20.0891
586	2414.1122	2491.9772	2315.5778	1983.6913	1508.5662	1204.7467	1127.7132	1171.0405	899.0083	539.2022	475.6501	445.7067	373.1298	353.1718	354.5966	349.1411	342.9185	349.5882	349.6049	346.9625	342.104	340.1335	330.9985	332.9031	317.2196	312.4647	298.3437	281.9685	265.555	233.2601	218.606	204.5181	191.2669	174.4411	157.1474	146.8389	135.7038	123.4285	111.9693	102.1757	95.0261	86.5778	77.0072	74.1123	68.1103	60.174	57.2013	51.2623	42.7553	37.3242	32.5558	21.4186	14.392
588	2228.0167	2384.2237	2172.6195	1959.4983	1488.5972	1272.8314	1191.6519	1152.3734	906.2547	500.2336	495.0504	408.9232	360.5394	330.5389	345.2066	326.0674	326.7272	325.6772	331.2469	331.2671	334.0991	339.8053	320.4828	314.5056	304.7249	308.3818	290.3873	266.1972	251.5637	226.9056	216.7725	195.1466	184.2948	166.6939	152.1454	145.4743	129.257	120.0685	108.6068	101.7935	90.891	83.774	73.7334	69.4536	67.1517	58.173	54.7675	45.8566	41.8294	36.7191	31.5747	17.1741	1.2125
590	2240.8748	2224.7415	2148.4689	1870.557	1467.3622	1321.5186	1217.5131	1158.1505	915.6678	541.8877	460.1361	370.9142	347.4163	331.1897	321.5816	317.3438	314.4188	318.0451	317.403	325.7213	312.9271	318.8717	310.7512	299.1104	295.869	290.307	278.9785	267.6856	241.1701	224.6083	206.1573	187.9443	178.4281	160.6463	149.8394	138.7384	128.0174	113.7197	107.3877	97.8723	90.087	80.4889	74.8102	69.7188	61.8376	58.0608	52.9371	46.7766	40.857	35.7698	28.9796	12.7952	0
592	2311.0385	2361.6678	2263.0802	1881.8572	1494.4461	1292.4433	1139.6331	1033.4268	887.99	556.5818	425.5879	346.1265	334.9744	316.4616	312.1449	314.7102	304.581	310.9266	308.5569	305.7534	303.4875	305.1854	298.5071	293.2852	286.3118	280.4022	269.4045	250.8015	234.9688	216.6198	196.404	181.081	171.2819	159.7323	145.9833	133.0069	121.6876	111.5092	102.3914	95.8983	87.3742	81.226	74.6673	66.9727	60.5579	56.2511	52.2642	44.9155	41.009	34.9025	24.7915	11.7153	0
594	2296.8769	2385.4882	2214.9094	1922.9657	1566.9549	1371.5921	1188.6916	1059.6217	971.1757	581.927	389.5547	333.7007	321.8649	302.6903	305.2449	297.4239	299.9399	303.7479	298.6685	304.7227	299.6472	291.2869	290.0665	282.9166	284.2502	268.0323	259.5134	242.809	226.7154	207.66	194.2033	178.5307	165.1206	150.8817	142.2655	130.6167	119.7107	109.0422	98.7241	89.8287	86.1921	74.886	69.525	63.8868	57.9519	55.2807	50.1211	45.029	38.3459	33.9807	22.469	0	0
596	2399.2615	2784.9642	2352.6351	2078.2084	1690.1046	1401.923	1243.2561	1086.5796	1007.2636	604.0354	352.1958	320.7626	318.2949	300.6935	282.2333	281.9456	288.8867	290.4336	287.8839	300.2496	284.3872	286.0043	278.9448	273.9627	269.2063	264.6301	256.4948	240.4513	216.3024	202.25	189.6278	174.1607	160.1536	148.379	135.2283	126.1388	116.3389	105.7671	97.4233	89.2377	79.9518	73.9599	68.8688	65.2696	57.8662	53.2892	49.1734	44.7538	40.6729	33.0186	22.9698	0	0
598	2753.7246	2882.0019	2550.4097	2196.704	1682.1555	1490.8099	1274.2496	1114.3129	999.1974	592.0683	313.4609	327.5139	316.5199	298.5579	274.6749	275.4975	278.975	276.3657	281.5772	278.5326	278.1158	275.9152	273.0605	256.913	253.2397	252.7506	244.8661	228.5336	209.7209	194.9114	183.6263	167.6864	157.7637	142.5927	130.9103	119.5388	112.6126	102.7294	92.0446	84.6663	78.7555	72.0904	65.3693	62.047	57.3877	51.6908	47.3401	45.2655	38.6955	34.968	0	0	0
600	2769.7954	3000.7752	2610.8659	2301.2099	1813.6942	1526.806	1305.5651	1142.35	1027.2898	593.8301	329.9033	325.861	314.4742	296.1504	277.295	265.2194	268.6968	273.2479	269.7808	269.5842	266.0934	260.9253	263.2721	255.9171	249.9099	249.7009	233.5213	218.403	209.2064	190.3036	180.1039	162.4588	150.4257	136.1661	127.6073	117.7899	108.6657	99.581	91.8301	83.9843	76.7861	67.0627	64.1802	59.5841	57.4314	50.0896	47.4152	43.3659	39.1963	35.0531	0	0	0
