Description	Scan series EEM_1.prn through EEM_53.prn																																																				
EEM type	"Dilution- & Scatter-corrected, Calibrated Data (ppb QSE)"																																																				
Scan date	3/5/2013 16:07																																																				
Excitation	240-500nm by 5nm																																																				
Emission	290-600nm by 2nm																																																				
Calibration	Michael_Fluoromax4_April08 (07-Apr-2008)																																																				
Slit settings	"5nm Excitation, 5nm Emission"																																																				
Dilution	29																																																				
Row 1	Excitation(nm)																																																				
Col 1	Emission(nm)																																																				
Data	Fluorescence(ppb QSE)																																																				
																																																					
	240	245	250	255	260	265	270	275	280	285	290	295	300	305	310	315	320	325	330	335	340	345	350	355	360	365	370	375	380	385	390	395	400	405	410	415	420	425	430	435	440	445	450	455	460	465	470	475	480	485	490	495	500
290	7.6384	2.9989	1.4929	1.1005	0.7634	0.4701	0.222	0	0	0	0	0	0	0	0	0	0	0	0	0	0	0	0	0	0	0	0	0	0	0	0	0	0	0	0	0	0	0	0	0	0	0	0	0	0	0	0	0	0	0	0	0	0
292	0	0	0	0.7257	0.4195	0.155	0	2.0758	0	0	0	0	0	0	0	0	0	0	0	0	0	0	0	0	0	0	0	0	0	0	0	0	0	0	0	0	0	0	0	0	0	0	0	0	0	0	0	0	0	0	0	0	0
294	11.9489	6.9177	0	0.3589	0.083	0	0	4.1065	0	0	0	0	0	0	0	0	0	0	0	0	0	0	0	0	0	0	0	0	0	0	0	0	0	0	0	0	0	0	0	0	0	0	0	0	0	0	0	0	0	0	0	0	0
296	29.4484	0	1.8527	0	0	0	6.2425	6.084	0	0	0	0	0	0	0	0	0	0	0	0	0	0	0	0	0	0	0	0	0	0	0	0	0	0	0	0	0	0	0	0	0	0	0	0	0	0	0	0	0	0	0	0	0
298	11.4472	15.7616	17.4564	7.714	0	0	12.3148	7.9999	2.2772	0	0	0	0	0	0	0	0	0	0	0	0	0	0	0	0	0	0	0	0	0	0	0	0	0	0	0	0	0	0	0	0	0	0	0	0	0	0	0	0	0	0	0	0
300	32.7735	9.0317	15.4106	17.2868	0	6.4262	16.1911	9.8597	4.4905	0	0	0	0	0	0	0	0	0	0	0	0	0	0	0	0	0	0	0	0	0	0	0	0	0	0	0	0	0	0	0	0	0	0	0	0	0	0	0	0	0	0	0	0
302	47.8631	10.5273	4.5315	0.7238	0	12.8767	18.2458	12.59	6.7472	0	0	0	0	0	0	0	0	0	0	0	0	0	0	0	0	0	0	0	0	0	0	0	0	0	0	0	0	0	0	0	0	0	0	0	0	0	0	0	0	0	0	0	0
304	67.2745	16.5774	11.0279	0.4466	0	19.3516	20.3073	15.3296	9.0116	3.2002	0	0	0	0	0	0	0	0	0	0	0	0	0	0	0	0	0	0	0	0	0	0	0	0	0	0	0	0	0	0	0	0	0	0	0	0	0	0	0	0	0	0	0
306	63.5618	19.9183	0	11.6171	6.5402	25.8379	23.1249	17.8227	11.2779	6.4084	0	0	0	0	0	0	0	0	0	0	0	0	0	0	0	0	0	0	0	0	0	0	0	0	0	0	0	0	0	0	0	0	0	0	0	0	0	0	0	0	0	0	0
308	72.241	29.8835	0	18.9833	9.0478	32.326	25.9364	20.0644	16.1657	9.6196	0	0	0	0	0	0	0	0	0	0	0	0	0	0	0	0	0	0	0	0	0	0	0	0	0	0	0	0	0	0	0	0	0	0	0	0	0	0	0	0	0	0	0
310	61.7844	28.3599	31.4328	14.9674	25.4228	31.6566	28.7519	22.3092	21.0615	12.8356	3.9833	0	0	0	0	0	0	0	0	0	0	0	0	0	0	0	0	0	0	0	0	0	0	0	0	0	0	0	0	0	0	0	0	0	0	0	0	0	0	0	0	0	0
312	77.9263	62.3192	40.2181	13.7833	15.9777	37.3999	31.3811	26.989	24.9379	15.9596	7.9248	0	0	0	0	0	0	0	0	0	0	0	0	0	0	0	0	0	0	0	0	0	0	0	0	0	0	0	0	0	0	0	0	0	0	0	0	0	0	0	0	0	0
314	76.237	32.2734	43.4428	27.1077	18.4734	36.8902	33.9805	31.6182	27.9056	20.8474	11.8243	0	0	0	0	0	0	0	0	0	0	0	0	0	0	0	0	0	0	0	0	0	0	0	0	0	0	0	0	0	0	0	0	0	0	0	0	0	0	0	0	0	0
316	79.9305	61.5565	41.9839	35.3733	26.7153	32.5468	48.1392	36.077	30.7379	25.5976	15.63	4.6235	0	0	0	0	0	0	0	0	0	0	0	0	0	0	0	0	0	0	0	0	0	0	0	0	0	0	0	0	0	0	0	0	0	0	0	0	0	0	0	0	0
318	131.2612	59.3964	53.8774	28.7362	34.8648	46.5166	47.279	40.3177	35.1245	29.5736	19.3028	9.1361	0	0	0	0	0	0	0	0	0	0	0	0	0	0	0	0	0	0	0	0	0	0	0	0	0	0	0	0	0	0	0	0	0	0	0	0	0	0	0	0	0
320	120.9026	69.3087	55.525	43.7701	43.3967	48.6501	53.1716	44.4447	39.3954	32.8649	24.384	13.5378	0	0	0	0	0	0	0	0	0	0	0	0	0	0	0	0	0	0	0	0	0	0	0	0	0	0	0	0	0	0	0	0	0	0	0	0	0	0	0	0	0
322	137.4924	86.6766	33.3622	54.6474	37.9168	47.2057	47.8626	50.8745	43.3484	35.8986	29.1987	17.7459	5.9478	0	0	0.5435	0.6347	0	0	0	0	0	0	0	0	0	0	0	0	0	0	0	0	0	0	0	0	0	0	0	0	0	0	0	0	0	0	0	0	0	0	0	0
324	110.0441	86.9946	72.5268	65.2694	46.9079	57.9136	57.5037	53.4998	47.1421	40.1995	33.3496	21.8015	11.6922	0.7651	3.3625	1.6023	1.2475	0	0	0	0	0	0	0	0	0	0	0	0	0	0	0	0	0	0	0	0	0	0	0	0	0	0	0	0	0	0	0	0	0	0	0	0
326	141.6823	82.043	63.6159	47.288	58.0897	55.7291	58.6526	56.5499	50.754	44.3084	36.8453	26.9513	17.2253	6.9285	1.4654	2.6223	1.8374	1.1133	0	0	0	0	0	0	0	0	0	0	0	0	0	0	0	0	0	0	0	0	0	0	0	0	0	0	0	0	0	0	0	0	0	0	0
328	153.9636	91.9897	79.5635	54.7821	59.6327	56.3607	58.1534	57.6005	55.8067	48.2186	40.1728	31.8847	22.5392	11.7156	2.5668	3.6021	3.7465	2.1847	0	0	0	0	0	0	0	0	0	0	0	0	0	0	0	0	0	0	0	0	0	0	0	0	0	0	0	0	0	0	0	0	0	0	0
330	138.0802	110.5922	76.1412	61.9957	62.2239	61.2237	61.8602	66.6411	61.1093	51.9475	44.5053	36.6388	27.6386	16.3154	4.6914	0	5.5811	3.2142	0	0	0	0	0	0	0	0	0	0	0	0	0	0	0	0	0	0	0	0	0	0	0	0	0	0	0	0	0	0	0	0	0	0	0
332	146.8291	113.3609	81.7772	77.0452	62.6539	60.9423	64.2528	67.1645	62.4176	54.8997	48.1177	40.77	31.6348	20.5059	8.9961	4.4923	7.2627	3.9321	0.9463	0	0	0	0	0	0	0	0	0	0	0	0	0	0	0	0	0	0	0	0	0	0	0	0	0	0	0	0	0	0	0	0	0	0
334	132.7482	105.331	101.1485	65.9136	63.849	67.146	62.5227	64.0645	67.1734	62.5851	51.4236	44.5776	35.3325	24.4073	14.078	5.7201	8.1835	4.3819	1.8339	0	0	0	0	0	0	0	0	0	0	0	0	0	0	0	0	0	0	0	0	0	0	0	0	0	0	0	0	0	0	0	0	0	0
336	158.4307	112.7847	96.2957	81.3417	60.0801	68.8129	64.8723	64.4368	65.6318	61.2509	54.4783	47.6156	38.6917	28.0477	18.8377	8.6775	3.0464	4.8	2.6656	0.3399	0	0	0	0	0	0	0	0	0	0	0	0	0	0	0	0	0	0	0	0	0	0	0	0	0	0	0	0	0	0	0	0	0
338	157.728	119.5715	84.0813	74.2259	75.4653	63.7399	65.9167	63.0461	66.2145	65.9127	57.2956	50.4237	41.7332	33.3741	23.2907	11.3496	7.9305	5.188	2.4952	0.6587	0	0	0	0	0	0	0	0	0	0	0	0	0	0	0	0	0	0	0	0	0	0	0	0	0	0	0	0	0	0	0	0	0
340	157.0135	109.0845	86.4105	80.1399	74.6147	71.5031	65.098	70.5269	70.7646	66.9291	63.341	52.9579	44.5038	38.3059	27.4227	17.2006	8.027	8.3933	2.3305	0.9565	0	0	0	0	0	0	0	0	0	0	0	0	0	0	0	0	0	0	0	0	0	0	0	0	0	0	0	0	0	0	0	0	0
342	176.5231	111.9006	99.9453	88.8167	68.6065	75.5978	73.5612	68.493	69.6692	67.9187	65.6526	55.5197	49.0722	42.5221	31.4039	22.7669	10.5204	4.354	2.1831	2.4244	1.7239	0	0	0	0	0	0	0	0	0	0	0	0	0	0	0	0	0	0	0	0	0	0	0	0	0	0	0	0	0	0	0	0
344	162.5665	119.5422	100.2092	87.6608	83.6331	74.1067	80.1492	73.4275	72.5629	71.6981	64.6889	57.8511	53.3102	45.8985	37.0482	27.99	17.7453	8.9705	9.1568	4.958	3.3495	0	0	0	0	0	0	0	0	0	0	0	0	0	0	0	0	0	0	0	0	0	0	0	0	0	0	0	0	0	0	0	0
346	159.8325	139.4154	124.0069	90.0328	82.8881	76.8943	76.4783	76.5518	71.7116	75.8154	67.6384	62.6415	57.3679	49.1342	42.4212	32.956	22.6071	9.8853	9.6775	7.3582	4.8895	2.2902	0	0	0	0	0	0	0	0	0	0	0	0	0	0	0	0	0	0	0	0	0	0	0	0	0	0	0	0	0	0	0
348	200.6843	130.3596	119.5327	92.37	91.1047	82.0769	77.9811	77.9359	76.8877	79.9486	76.6989	75.4557	61.2884	54.0933	47.2444	37.7094	27.249	17.8313	12.5901	9.6448	8.4782	4.4664	0	0	0	0	0	0	0	0	0	0	0	0	0	0	0	0	0	0	0	0	0	0	0	0	0	0	0	0	0	0	0
350	178.9443	160.3536	119.3208	92.2051	89.4597	91.0812	89.9723	80.0847	76.4632	78.8009	78.1348	72.6358	64.9351	58.7368	51.4475	41.8165	31.6256	22.655	16.0328	15.584	11.8776	6.5283	0	0	0	0	0	0	0	0	0	0	0	0	0	0	0	0	0	0	0	0	0	0	0	0	0	0	0	0	0	0	0
352	205.3606	152.3146	123.1209	100.2527	94.9714	86.7707	89.7976	86.7852	82.4436	82.7922	86.0684	80.7329	73.1614	63.0773	55.3782	45.6671	35.7437	25.8291	19.1924	15.1375	15.0906	9.0969	3.107	0	0	0	0	0	0	0	0	0	0	0	0	0	0	0	0	0	0	0	0	0	0	0	0	0	0	0	0	0	0
354	218.2136	163.8214	130.7159	110.7916	103.5197	96.0296	89.6497	87.6572	89.4668	87.631	84.7733	82.4142	79.3945	67.1038	58.6849	49.2534	41.6205	33.4956	24.2965	17.2453	15.2727	12.1218	6.048	0	0	0	0	0	0	0	0	0	0	0	0	0	0	0	0	0	0	0	0	0	0	0	0	0	0	0	0	0	0
356	214.6626	166.5315	139.58	119.1811	107.5201	96.2967	100.2017	88.9138	91.9813	92.3877	90.4384	89.7587	87.0009	71.0601	63.9074	56.7051	49.4806	40.8461	31.3293	22.4269	19.4038	15.0187	8.8533	2.4927	0	0	0	0	0	0	0	0	0	0	0	0	0	0	0	0	0	0	0	0	0	0	0	0	0	0	0	0	0
358	224.3208	181.4981	143.8062	117.9949	112.6031	110.2624	101.7308	97.5053	94.5906	91.49	92.336	94.9047	89.6542	82.9715	70.97	63.9564	57.537	47.964	37.0127	27.9075	25.3361	17.8202	11.6027	4.8792	0	0	0	0	0	0	0	0	0	0	0	0	0	0	0	0	0	0	0	0	0	0	0	0	0	0	0	0	0
360	278.2172	179.4715	145.1809	127.9512	118.0473	101.9211	104.6023	100.2042	104.4779	98.8422	104.7184	100.6308	97.2407	88.7005	77.6678	71.2635	65.1999	54.7365	44.9482	34.4526	24.9207	21.4435	14.2242	7.1594	0	0	0	0	0	0	0	0	0	0	0	0	0	0	0	0	0	0	0	0	0	0	0	0	0	0	0	0	0
362	268.3366	195.6053	166.4546	136.5901	125.7673	115.2754	109.2959	105.5778	103.9883	109.0293	102.3921	107.6989	101.5639	94.7135	84.5944	78.9462	71.8895	62.3577	52.8687	38.5036	29.877	22.8997	16.8355	10.3832	3.8426	0	0	0	0	0	0	0	0	0	0	0	0	0	0	0	0	0	0	0	0	0	0	0	0	0	0	0	0
364	283.2129	199.7607	177.8806	152.4693	136.7753	125.7043	119.9645	116.9453	113.5071	113.2824	113.4555	113.5611	114.323	103.3232	93.2711	86.3577	78.3408	71.2206	60.5237	48.528	35.5714	27.1993	22.1928	14.4719	7.5656	0	0	0	0	0	0	0	0	0	0	0	0	0	0	0	0	0	0	0	0	0	0	0	0	0	0	0	0
366	274.646	241.4026	186.0914	163.7312	145.4682	128.9935	121.6981	124.12	121.1203	122.0777	117.0126	119.2156	121.4605	114.8939	105.8034	93.575	86.1031	79.8419	67.969	55.5142	42.8924	30.5837	26.8378	18.4415	11.1783	3.8937	0	0	0	0	0	0	0	0	0	0	0	0	0	0	0	0	0	0	0	0	0	0	0	0	0	0	0
368	307.9785	238.7602	210.3372	178.7028	157.1212	145.1653	136.3243	126.4574	124.4616	126.5013	126.1759	127.654	128.7122	119.5468	113.87	100.6188	94.4034	86.967	75.0323	62.3191	50.2363	36.3385	29.0915	22.3022	16.3357	7.6753	0	0	0	0	0	0	0	0	0	0	0	0	0	0	0	0	0	0	0	0	0	0	0	0	0	0	0
370	313.806	248.6329	197.8097	177.4334	174.8663	153.3704	142.2542	136.2014	134.9181	137.6372	140.1852	139.4559	135.5304	134.4879	124.0471	113.3715	102.4271	93.8514	81.482	68.9029	56.1974	43.3036	32.7233	24.6784	21.3382	11.3447	0	0	0	0	0	0	0	0	0	0	0	0	0	0	0	0	0	0	0	0	0	0	0	0	0	0	0
372	317.2893	260.3994	222.0133	201.2265	179.8213	161.9784	161.6132	146.0223	145.6813	141.5739	145.5338	143.844	147.1517	140.5876	136.5931	124.8879	110.7414	100.6342	88.1598	78.3116	65.9712	48.5098	36.3459	29.9531	26.3199	15.7186	5.2386	0	0	0	0	0	0	0	0	0	0	0	0	0	0	0	0	0	0	0	0	0	0	0	0	0	0
374	360.0086	293.7546	246.6597	210.3408	192.7998	172.6005	160.7305	156.0241	157.984	153.9693	156.3502	156.008	156.3304	155.7698	145.2322	135.73	118.874	109.7457	99.9977	90.1604	75.5457	60.6285	42.1713	33.7076	27.1675	20.7372	10.3743	0	0	0	0	0	0	0	0	0	0	0	0	0	0	0	0	0	0	0	0	0	0	0	0	0	0
376	378.6714	273.2109	262.0231	217.6572	192.2645	184.9303	173.2258	173.217	167.2388	168.1651	172.2345	166.352	169.1094	163.0887	157.0549	147.0201	131.3636	121.1963	111.4928	100.6401	84.8467	67.2775	49.5299	37.611	29.7745	25.6308	15.3937	5.3408	0	0	0	0	0	0	0	0	0	0	0	0	0	0	0	0	0	0	0	0	0	0	0	0	0
378	412.1384	322.5554	272.0985	240.39	216.3492	193.9419	188.3202	177.3923	177.5505	177.0026	178.3106	181.7973	183.4854	174.6905	167.6361	160.5159	142.7607	132.2601	122.6112	110.7765	93.8472	76.6519	57.3181	41.6653	34.3833	30.3858	22.4147	10.5559	0	0	0	0	0	0	0	0	0	0	0	0	0	0	0	0	0	0	0	0	0	0	0	0	0
380	399.3733	341.3418	292.3849	256.9964	227.6087	210.3975	194.7877	188.1864	186.2261	192.5971	186.4681	196.1626	194.5257	187.4153	180.6169	174.3387	158.3761	143.0305	132.4171	120.0538	102.6114	85.7867	66.7428	48.7501	37.4699	31.1444	29.2651	15.6453	0	0	0	0	0	0	0	0	0	0	0	0	0	0	0	0	0	0	0	0	0	0	0	0	0
382	428.5607	356.2173	320.5319	270.4794	248.7576	229.052	207.7875	194.6942	200.1144	197.2753	201.1235	207.4137	206.7654	201.7503	195.3145	186.9021	171.8093	154.2103	142.6038	129.08	113.1469	95.1143	75.1774	55.9719	40.4947	33.7774	36.1083	20.6225	5.9553	0	0	0	0	0	0	0	0	0	0	0	0	0	0	0	0	0	0	0	0	0	0	0	0
384	450.3853	398.3022	329.9764	302.9874	264.5867	230.4743	232.4945	211.8203	208.8913	206.462	210.5645	214.515	217.3248	214.5245	212.7624	199.5757	185.7056	168.1049	152.6233	137.9569	123.5142	104.2926	83.6127	64.3888	46.8157	35.5661	31.4085	25.4424	11.8201	0	0	0	0	0	0	0	0	0	0	0	0	0	0	0	0	0	0	0	0	0	0	0	0
386	487.8259	419.1713	351.6797	311.1144	273.7225	250.2815	238.6234	221.9668	217.6411	219.8638	219.8136	228.4401	236.2661	228.0563	219.6421	208.954	198.7162	179.24	163.0848	148.7375	133.6415	113.7452	92.2549	71.2302	53.3897	42.8183	34.5009	30.298	17.6599	5.5648	0	0	0	0	0	0	0	0	0	0	0	0	0	0	0	0	0	0	0	0	0	0	0
388	469.9705	435.3107	350.7469	315.2228	293.1789	262.1301	240.4812	229.9706	228.4782	227.9117	239.5204	234.7834	246.901	242.3873	232.6272	224.1496	210.3996	196.8493	174.1133	160.0305	143.6543	122.9541	101.2049	84.0319	63.0302	45.6662	36.1362	35.2445	24.6518	11.1265	0	0	0	0	0	0	0	0	0	0	0	0	0	0	0	0	0	0	0	0	0	0	0
390	494.9557	452.1966	386.8097	346.044	313.5675	279.7054	259.7652	248.6658	240.779	238.7506	250.6908	253.284	257.2346	254.4114	245.412	237.7947	225.4233	212.133	192.132	171.3231	153.6655	132.1609	110.1526	89.7103	71.5657	52.3642	39.1294	33.8105	31.6407	16.685	0	0	0	0	0	0	0	0	0	0	0	0	0	0	0	0	0	0	0	0	0	0	0
392	524.782	483.5952	395.6648	357.1087	314.495	294.66	277.7206	256.7378	254.6735	252.8686	258.8943	259.2958	270.5641	271.0982	262.4591	255.1213	239.8845	222.9577	205.7655	181.5184	162.0553	140.5178	121.0117	100.2075	80.5937	57.1496	43.5282	33.6851	38.3962	21.5363	5.8194	0	0	0	0	0	0	0	0	0	0	0	0	0	0	0	0	0	0	0	0	0	0
394	586.0747	484.5284	412.6589	372.5301	341.158	304.2893	289.7921	274.529	263.6417	260.7872	266.5042	281.6195	281.7556	281.7553	276.2554	265.837	253.7103	235.2402	217.1866	191.5754	173.0697	154.1414	133.9136	110.5699	87.1458	66.8959	47.7896	38.1311	32.3253	25.7571	11.5658	0	0	0	0	0	0	0	0	0	0	0	0	0	0	0	0	0	0	0	0	0	0
396	610.2044	493.8792	438.9039	394.363	351.9737	322.3559	298.5493	284.4796	277.1481	275.1655	275.5508	291.7138	292.5292	297.7491	293.0224	282.0155	272.1355	254.6691	235.6443	210.8643	186.9543	167.8524	146.0235	120.985	96.6813	76.7346	55.7029	42.7526	32.4177	29.9685	17.2658	4.7126	0	0	0	0	0	0	0	0	0	0	0	0	0	0	0	0	0	0	0	0	0
398	614.9774	553.5351	468.7158	415.6916	374.3744	336.0741	314.6396	290.4506	283.8858	290.4332	292.8524	300.2624	314.0219	310.9126	306.9448	294.781	286.9467	271.8159	251.4292	225.9729	201.0219	180.8393	158.2645	131.504	107.837	85.3986	63.8898	46.6904	35.5151	34.1907	22.4373	9.394	0	0	0	0	0	0	0	0	0	0	0	0	0	0	0	0	0	0	0	0	0
400	661.1791	568.9169	477.3784	441.4107	377.9139	356.9965	325.0318	308.4918	298.004	301.0981	303.9113	315.0733	329.8515	327.3955	324.0396	315.2359	304.8454	291.8878	267.5408	244.7312	215.0038	193.3074	168.9019	142.6841	118.923	95.9231	72.9302	50.9061	40.5633	32.2026	27.5742	14.0442	0	0	0	0	0	0	0	0	0	0	0	0	0	0	0	0	0	0	0	0	0
402	653.2	590.7193	496.2408	457.8671	408.1816	373.0907	340.1019	319.4626	309.9682	315.2425	321.7363	329.2551	335.8247	342.6192	339.6426	334.4698	318.4776	304.7144	285.0878	258.4323	233.6804	205.3423	179.1612	154.9796	129.7153	104.4987	82.0945	60.0508	44.2503	35.5759	32.6206	18.1975	4.9923	0	0	0	0	0	0	0	0	0	0	0	0	0	0	0	0	0	0	0	0
404	700.8299	578.4748	520.8017	460.272	425.837	387.1459	351.7287	341.8617	328.993	326.5212	331.238	338.1117	354.0345	352.3568	351.8521	351.245	333.882	324.2749	302.5357	277.1375	248.4244	217.2529	190.7937	167.1515	140.3977	114.6306	90.7768	67.884	50.9412	39.3188	31.2167	21.8761	9.9342	0	0	0	0	0	0	0	0	0	0	0	0	0	0	0	0	0	0	0	0
406	719.8143	623.0908	561.1568	484.5651	452.0591	407.52	379.0996	347.5845	344.2166	332.7088	340.5172	352.4586	363.3138	370.2258	371.4957	363.6009	351.7948	339.0545	314.0869	295.8674	263.1679	229.4704	203.425	178.0768	151.0473	124.8926	99.5871	74.7385	55.0666	43.1353	31.7418	25.5635	14.8533	4.1462	0	0	0	0	0	0	0	0	0	0	0	0	0	0	0	0	0	0	0
408	715.8322	637.3933	579.0851	505.8398	463.7558	422.3294	397.1069	362.8818	357.3577	353.1298	351.5803	371.226	384.011	385.4586	383.4958	378.6109	370.4869	359.5801	335.798	311.9437	280.6671	247.0015	216.3867	189.2893	161.522	135.3449	110.0047	85.6837	61.362	48.318	36.81	29.2809	19.5097	8.2807	0	0	0	0	0	0	0	0	0	0	0	0	0	0	0	0	0	0	0
410	770.3869	678.0665	607.7372	527.4056	484.5538	435.6292	404.6284	372.1182	371.2743	356.3861	369.2327	384.0149	393.3117	398.955	402.0791	395.8147	391.9015	374.455	352.6022	328.8563	297.1584	266.4668	229.3215	200.0577	171.9726	147.1327	119.7858	94.4888	71.5077	52.3842	41.297	31.1975	24.1532	12.4036	0	0	0	0	0	0	0	0	0	0	0	0	0	0	0	0	0	0	0
412	785.442	720.9862	625.0565	538.9922	500.7092	468.006	426.4119	387.034	379.6972	380.9876	373.3911	393.0839	400.5929	408.6511	413.8206	411.4307	400.8257	392.3936	371.1991	345.6242	318.1262	286.1423	242.248	211.9953	185.1455	160.2655	129.5531	104.4851	79.1211	58.5022	46.1745	34.0502	28.7858	16.7073	5.0785	0	0	0	0	0	0	0	0	0	0	0	0	0	0	0	0	0	0
414	837.0298	715.1552	648.3136	562.4904	514.7031	474.8766	428.7653	407.2787	391.0628	380.6891	392.3966	406.1984	417.7535	424.7595	428.8253	427.7169	417.636	410.057	386.212	365.5104	332.6065	296.4304	258.0319	225.2951	198.2933	169.9748	139.2988	112.8897	87.2471	65.1553	51.3906	38.1233	29.5042	21.1908	10.1439	0	0	0	0	0	0	0	0	0	0	0	0	0	0	0	0	0	0
416	835.6611	759.4889	653.4605	592.8979	532.7774	492.8335	453.9601	425.8309	398.5066	394.2307	403.6139	414.5359	425.7536	434.198	444.7965	451.0229	432.6964	429.6591	410.2929	380.7562	355.3568	314.7568	276.1207	239.1162	211.9004	180.073	149.3632	118.9094	96.2805	73.5928	54.1198	40.7041	33.154	25.7205	15.2306	4.449	0	0	0	0	0	0	0	0	0	0	0	0	0	0	0	0	0
418	882.6259	750.2113	681.4824	631.2803	571.4185	513.8052	465.5719	442.365	414.1717	406.5242	412.9605	421.836	440.6134	448.4281	460.3431	460.3664	454.9023	446.1727	421.7024	397.6956	371.165	334.3802	295.6586	253.5534	222.6198	190.629	161.298	130.6875	102.8967	81.485	60.3488	47.4907	35.9461	30.3273	20.5322	8.9264	0	0	0	0	0	0	0	0	0	0	0	0	0	0	0	0	0
420	929.1913	786.9909	709.4878	642.7242	584.3083	524.8578	489.0428	452.8055	434.0873	425.4482	428.528	436.0815	454.4303	458.2182	472.5641	474.2403	471.9411	464.7419	443.0114	415.6693	382.807	349.8398	311.6818	268.0922	234.9106	204.2362	174.2486	142.5468	112.3775	89.2132	67.9933	51.0478	41.2663	31.3489	25.8678	13.4324	0	0	0	0	0	0	0	0	0	0	0	0	0	0	0	0	0
422	952.0303	835.8519	723.197	650.8462	616.1066	554.2861	506.6844	473.8005	443.8617	437.6834	434.5844	447.374	464.406	473.948	484.1349	488.9244	485.9964	480.8769	469.4222	435.1712	402.5832	366.04	327.9987	283.1313	248.8522	217.9928	186.2197	154.5245	122.5588	96.1948	73.4355	57.021	44.6004	35.4994	31.2449	18.1241	5.4403	0	0	0	0	0	0	0	0	0	0	0	0	0	0	0	0
424	945.9632	834.0544	741.7707	675.378	627.3939	567.4159	520.7974	475.9622	463.2517	447.9954	450.8942	462.8652	476.9957	484.1017	495.14	510.6686	504.8313	499.4649	476.289	453.2646	419.1739	381.0006	341.778	297.988	262.8969	230.7298	198.2775	166.5895	132.9539	105.4207	82.6915	62.5531	49.5337	36.8397	30.1336	23.0012	10.9182	0	0	0	0	0	0	0	0	0	0	0	0	0	0	0	0
426	968.4451	853.2604	764.5085	700.4014	632.614	592.4359	534.6068	497.9802	476.8117	451.7415	458.0831	468.357	488.8294	498.8122	510.9751	516.7138	515.1261	514.3526	501.0372	472.8906	437.8414	400.7028	357.26	315.5003	277.497	243.3912	210.8633	178.0765	143.656	115.0853	92.0534	69.9762	54.0284	41.9889	31.9547	27.9562	16.4604	5.4054	0	0	0	0	0	0	0	0	0	0	0	0	0	0	0
428	993.216	904.4931	778.1654	736.5012	667.6959	589.6712	545.886	510.494	485.3819	467.4065	466.9142	485.4175	499.0998	507.3741	524.1379	537.1148	536.2502	533.466	516.9117	490.307	454.4414	416.4726	371.8915	332.8039	290.4841	256.5928	223.9364	188.0583	154.7147	123.3525	97.2721	76.9294	58.9571	46.7363	35.0738	33.0127	23.6896	10.8828	0	0	0	0	0	0	0	0	0	0	0	0	0	0	0
430	1050.5068	922.7296	814.0611	746.2507	691.474	621.1704	568.5759	530.5681	495.6227	482.3585	484.3036	491.3181	503.0033	522.1884	533.8706	551.919	555.0392	545.1577	527.9772	506.0131	470.2609	438.4577	395.2454	349.8517	310.5908	269.9589	235.2349	198.1618	165.914	133.6332	105.616	83.4003	65.2633	49.9686	39.2512	31.7206	31.0143	16.4322	0	0	0	0	0	0	0	0	0	0	0	0	0	0	0
432	1021.7244	926.0883	838.991	766.6218	697.0055	634.7243	591.5221	550.1941	509.9817	491.7331	494.5388	498.7169	516.794	527.3084	544.1069	558.0321	563.1592	562.8327	547.2624	526.7916	490.7511	451.6959	404.1258	361.0996	323.4035	283.1765	245.4233	209.4841	176.8011	143.8854	115.0665	91.0253	71.7927	55.3596	43.8117	34.9771	38.3927	21.9012	6.2809	0	0	0	0	0	0	0	0	0	0	0	0	0	0
434	1072.401	955.1034	860.2145	784.2291	711.1413	646.816	599.0236	556.9355	519.8328	498.4997	500.9249	508.9544	519.6376	539.2421	554.6192	573.767	577.359	580.8415	562.953	540.4784	506.4731	468.2729	421.1219	374.8752	336.8178	296.5459	255.7145	220.9252	187.2855	154.2467	121.4814	98.2817	79.8516	61.5696	48.7088	39.4552	34.4958	27.2997	12.6308	0	0	0	0	0	0	0	0	0	0	0	0	0	0
436	1084.9537	972.0806	874.6526	788.0529	737.0036	659.8103	607.5897	558.1762	533.1148	505.0622	504.8373	525.2226	530.0688	541.8644	566.3331	577.2185	588.4013	590.1077	577.4061	556.6658	521.7489	482.01	431.6982	385.8249	350.0795	311.3035	266.453	232.2634	198.1342	164.9292	131.1078	104.2646	85.0698	66.5238	52.7619	42.8161	34.0385	32.7975	19.074	6.202	0	0	0	0	0	0	0	0	0	0	0	0	0
438	1069.0185	962.1822	884.2225	797.6411	755.5328	691.2532	626.0167	573.3028	536.3493	514.7725	518.6991	521.9302	542.4991	559.0481	577.2987	592.2575	601.8089	607.6167	593.7712	568.804	536.617	494.6994	447.1738	403.5617	363.1556	326.5113	277.675	243.2257	208.2585	174.2724	139.5664	113.7711	93.2738	73.1209	57.6064	45.9226	36.6956	38.4151	27.5064	12.503	0	0	0	0	0	0	0	0	0	0	0	0	0
440	1124.8267	997.1699	892.1012	848.5868	740.4628	690.2334	644.2232	591.5679	555.6051	533.2629	539.5756	535.0413	541.3977	556.376	584.5389	605.1304	615.1435	611.4379	604.7879	580.9852	552.3533	511.8175	461.9972	419.6086	375.923	335.3912	294.2664	252.6335	217.3875	182.3271	148.1453	120.6265	100.1042	80.9542	62.2821	51.3759	39.9237	35.4127	36.0718	18.9031	0	0	0	0	0	0	0	0	0	0	0	0	0
442	1120.7879	1041.576	902.388	832.9329	787.1136	714.2726	660.0275	603.7335	575.0908	538.2677	528.499	539.5061	551.1498	572.945	594.1588	608.3572	627.4768	627.6141	619.3923	598.041	569.2955	520.501	477.3978	427.2567	388.3867	348.1496	304.8793	261.9606	226.4626	188.632	156.7231	126.0477	106.5047	86.818	67.7277	53.7452	43.2765	36.9601	44.7361	24.3934	6.1946	0	0	0	0	0	0	0	0	0	0	0	0
444	1142.3345	1029.8185	921.0897	838.0784	775.2409	721.9806	652.386	610.1888	581.9933	545.8831	540.491	546.5671	560.5908	579.5822	598.7594	615.0217	628.085	637.236	626.7664	612.4993	576.8052	537.9212	485.7081	438.9939	402.5051	359.2613	316.9762	271.3985	233.9329	195.009	165.41	134.3559	114.3147	93.1772	75.3413	57.9691	47.7563	39.1746	37.4701	28.9621	12.4764	0	0	0	0	0	0	0	0	0	0	0	0
446	1138.623	1039.5678	931.1807	837.6638	797.0299	712.2733	681.5472	634.1793	579.6139	549.784	543.7276	551.0324	571.6402	578.3427	598.0621	626.9332	646.8037	646.0509	640.8944	624.3409	590.1226	552.6856	503.7826	454.2538	410.4837	369.8744	330.064	281.1307	240.7808	204.1065	173.1439	142.8631	121.9038	100.1741	82.5031	62.8651	51.4655	43.3419	36.6908	33.6135	18.8577	5.9423	0	0	0	0	0	0	0	0	0	0	0
448	1160.1833	1075.3146	949.8151	879.3781	812.7719	753.6562	682.3496	627.3034	597.5389	563.3711	548.61	560.866	573.1959	591.6037	612.4441	630.7566	641.9734	656.3036	650.8726	629.2337	596.8085	558.4401	510.8592	465.6334	420.3276	382.1825	339.038	292.378	247.868	213.4612	178.7242	151.5841	129.6214	106.5146	89.2412	69.4789	56.7082	46.8223	39.0629	38.3562	26.6927	11.9824	0	0	0	0	0	0	0	0	0	0	0
450	1185.0637	1056.701	962.3604	886.9589	831.6934	743.6643	694.8269	640.2916	602.7325	571.1958	561.5293	564.321	573.8661	582.0541	609.9458	640.3861	651.9228	662.4091	654.9073	643.1443	610.1488	568.5088	523.2098	471.9692	432.1653	395.8189	350.9434	303.5561	255.0411	220.5639	184.3734	160.4318	137.0325	113.1026	94.1528	76.6385	60.8407	51.6136	42.4521	36.8499	34.6546	18.1204	0	0	0	0	0	0	0	0	0	0	0
452	1169.853	1056.4646	954.7614	888.2047	829.9374	751.7791	702.7307	651.7231	607.162	582.2692	569.0124	568.9779	583.0989	595.6275	615.8662	643.0659	660.1227	669.5541	670.377	651.2353	616.6668	574.3745	533.1019	485.8278	443.0669	407.7376	358.4133	310.4387	262.4221	226.659	193.6442	169.0366	144.6156	120.7896	101.0625	83.2078	66.5415	54.5963	45.3849	36.0964	42.7633	23.7154	6.3785	0	0	0	0	0	0	0	0	0	0
454	1173.3158	1072.7616	980.4032	898.9975	831.9517	768.6886	699.0018	655.7672	613.7988	581.646	569.0352	574.1508	587.0944	594.7492	622.1736	647.5531	655.3058	679.6747	668.9476	660.6827	626.8143	584.2464	535.9381	491.751	448.1118	408.6288	366.0222	319.4448	273.7862	232.8274	203.0502	176.8624	152.3098	130.7249	106.1785	89.0078	72.2391	59.8993	50.2716	39.677	37.319	28.7452	12.8657	0	0	0	0	0	0	0	0	0	0
456	1181.0514	1074.894	992.2185	898.2221	858.9276	792.5659	734.394	672.631	622.5558	588.4238	578.3092	581.7213	586.7544	603.4149	619.8624	646.8755	669.4162	680.4697	680.6069	666.9589	630.2786	598.6047	545.3008	496.7435	453.032	418.3025	375.2838	327.4043	280.9295	239.4407	212.004	185.0843	160.3631	133.7943	112.0993	93.5907	78.102	63.0449	52.7659	42.0262	35.6237	33.9081	19.4915	5.4042	0	0	0	0	0	0	0	0	0
458	1171.5103	1100.934	980.2585	918.1906	849.3245	805.0277	719.9517	677.666	628.4435	591.9672	583.3521	579.6613	592.6421	603.5029	620.7544	645.7256	671.1775	680.5419	683.9683	665.7651	639.7908	597.0686	549.9365	506.6768	463.6843	428.093	380.6391	336.4368	289.9857	246.5195	219.7662	191.3231	165.1512	139.3764	118.238	99.1414	84.3203	68.2294	54.8152	45.4943	38.3882	39.2268	25.7698	10.9316	0	0	0	0	0	0	0	0	0
460	1217.739	1062.3564	990.7374	926.2578	867.0653	800.5079	742.7427	680.2941	636.3436	601.3831	582.4459	586.6854	601.8738	597.2544	620.8956	652.9392	669.7247	683.9186	682.9054	667.5334	644.3011	604.5794	556.2615	509.4377	471.804	428.7856	387.6126	343.0042	297.7357	255.8427	223.9871	195.2199	168.6733	145.0514	124.9358	107.7463	89.2071	74.4049	60.4593	49.0402	41.3079	36.719	32.1852	16.5822	0	0	0	0	0	0	0	0	0
462	1230.9778	1049.3139	982.6814	910.4115	859.6783	801.1835	738.9842	681.4306	633.1399	606.7267	596.0626	589.8987	595.8108	598.9481	626.1846	653.2887	668.59	684.5552	685.1731	676.3182	649.8499	605.434	557.5247	517.6588	477.7405	437.8082	391.0783	347.8858	304.7233	265.8816	228.5005	199.3771	172.217	150.9851	132.7394	110.8788	93.4158	79.1239	63.5996	53.3488	45.047	37.0393	38.7805	21.9463	6.0746	0	0	0	0	0	0	0	0
464	1225.5376	1087.1671	1025.7468	953.0467	886.1375	803.7724	744.6598	707.1789	648.2854	602.7599	593.6841	590.0239	597.3819	607.8567	629.0241	646.2322	671.4814	688.3443	686.3666	673.0614	649.7904	609.929	568.3375	519.207	482.2991	444.1078	400.2604	353.9419	308.1195	269.2082	233.0585	203.3722	175.7976	157.0212	136.4842	116.85	97.3778	85.0514	68.0957	57.7808	47.5057	38.8399	35.9258	26.9958	12.2966	0	0	0	0	0	0	0	0
466	1210.5799	1111.2147	1005.4239	946.4926	888.4389	814.2853	762.1452	698.3298	658.2939	621.2972	601.4633	595.158	602.7817	604.6981	622.0997	646.0546	669.4025	688.6088	689.6795	676.4135	654.4226	613.0968	566.6327	518.7289	486.4395	451.3016	402.8577	360.1778	312.7404	278.5955	237.7345	207.3661	182.2038	161.7773	140.3242	122.4715	103.608	91.0027	75.7254	60.967	50.0019	42.2019	36.7209	32.1696	18.6721	5.2339	0	0	0	0	0	0	0
468	1195.3024	1086.8029	1023.7053	932.8563	886.3683	820.2417	759.2446	708.106	650.4123	616.1879	593.7219	598.8567	598.9176	607.078	626.5566	653.1247	670.5492	685.2222	684.1606	674.1106	652.2569	614.1415	561.4742	526.3093	484.2942	456.6898	409.2808	364.2556	321.3641	281.3018	245.9547	211.4622	188.7731	163.7525	144.2614	126.5995	109.3372	92.9724	79.9928	64.4377	55.0268	43.9343	37.7836	37.4726	24.8856	10.5979	0	0	0	0	0	0	0
470	1179.3058	1075.7452	967.3047	946.5104	875.4719	818.2683	760.5207	706.3362	659.1425	609.9981	593.1392	592.0584	592.0405	599.5655	619.5225	635.7123	660.0233	670.6036	678.7991	671.6803	651.806	611.7326	569.2003	526.9988	489.8958	455.3252	408.0348	366.2552	325.0625	287.681	251.66	215.597	192.5199	165.7278	148.2535	130.0838	113.3668	96.8895	83.6221	66.99	55.8687	46.8396	39.2677	35.1781	31.2469	16.0922	0	0	0	0	0	0	0
472	1165.5111	1072.2999	995.7711	938.4758	876.3545	827.4421	759.4158	708.8592	661.7314	619.6402	605.077	593.8065	602.9372	599.9582	620.8706	629.9801	652.796	671.3752	678.9399	668.5688	646.6358	611.4304	561.6132	526.0116	491.191	452.6629	418.6546	368.5679	327.2048	287.3563	253.5753	220.296	195.2847	170.3763	152.5606	133.9335	116.8976	101.1584	87.0888	72.6924	56.0325	49.2963	40.5051	36.3195	37.8457	21.1646	5.7295	0	0	0	0	0	0
474	1150.8456	1044.9142	986.4223	910.4149	888.041	824.3989	764.7373	709.9011	658.748	622.5288	593.5652	582.0448	591.7743	590.2243	608.8557	635.3359	651.49	666.2283	668.9235	655.5209	638.7795	610.4765	565.8835	523.3334	489.5853	457.4053	417.3343	372.2357	327.066	292.1417	260.8896	225.2681	198.0499	175.0905	156.7227	137.8404	119.2946	103.2575	88.8356	76.4359	61.2108	50.848	42.6321	37.8094	33.6395	25.7631	11.6236	0	0	0	0	0	0
476	1134.2201	1033.8067	974.3751	930.4561	865.8358	814.9864	753.0884	705.0679	651.0144	619.9752	603.1068	582.9115	584.9512	593.1259	602.6776	626.6083	644.0118	654.7019	663.2129	653.8914	634.4858	601.8955	564.5342	523.2619	491.2903	456.3468	417.313	371.0245	332.0544	294.0423	262.5087	225.5385	200.6311	179.4963	160.7945	141.6745	121.9628	107.2553	91.4098	77.6022	63.3925	54.1701	45.7195	37.4431	34.4986	30.4554	17.6665	5.3887	0	0	0	0	0
478	1115.7329	1021.0973	984.8673	921.115	854.0644	814.2248	763.2325	693.167	646.1956	615.2373	595.2702	581.4554	584.9445	583.0342	601.6906	618.8952	629.5702	647.1154	645.1941	645.1438	630.6623	599.5993	567.4416	522.6572	488.3039	457.1568	419.1395	376.0823	330.0128	295.6585	265.479	231.8314	203.0282	183.402	164.2001	144.5704	124.6819	109.9792	95.4099	82.0324	68.4427	55.4975	48.0166	40.6681	33.5997	35.2296	24.5899	10.9084	0	0	0	0	0
480	1096.5128	1007.8024	952.5185	910.568	872.7574	809.5062	758.289	707.1334	660.251	620.4774	596.5459	585.5609	579.1776	582.5681	587.79	613.4551	634.4049	645.1329	644.3188	644.5595	621.7971	592.1879	555.3283	520.0225	487.9177	456.8857	419.2866	375.5002	335.9212	300.7029	267.9148	236.1	209.0014	186.4901	167.0644	146.9058	127.4312	114.3702	100.6974	84.4549	71.9532	60.6043	50.9862	45.224	37.3149	31.3833	31.6758	16.5593	0	0	0	0	0
482	1074.2249	991.7733	971.6539	892.1357	880.0842	819.9717	755.6311	708.4686	655.2738	622.0299	597.8643	581.5782	569.985	573.0919	590.1548	604.1512	621.5416	633.2554	637.3118	635.8359	616.9719	588.3442	548.3774	518.8251	484.4859	451.8989	418.8781	378.6752	337.8795	299.834	270.0648	236.8582	213.689	189.2064	169.5979	148.3423	129.9407	112.7334	102.2584	86.7003	73.0944	61.6848	52.1261	45.1899	38.9126	31.4525	38.844	22.1029	6.2538	0	0	0	0
484	1051.3602	975.2779	917.2799	896.6139	849.7201	804.364	749.1942	696.6687	646.862	607.354	587.7954	584.509	569.5451	561.0548	580.8807	597.1246	610.5932	621.2424	632.1476	628.5295	612.1946	581.4582	543.4738	511.3017	483.6311	452.8059	413.3956	377.5293	338.3589	303.261	273.5228	241.2287	213.9118	191.9409	171.5423	149.7796	132.475	115.6483	105.7276	89.5619	76.6419	64.8929	54.4375	48.3601	40.4983	34.9728	33.4924	27.5566	12.6294	0	0	0	0
486	1027.7119	958.1235	909.159	906.5938	834.711	806.2152	751.9317	704.5441	664.9547	604.392	584.8305	578.7989	560.5441	566.6593	570.9107	588.365	601.2128	624.0756	617.224	620.3486	603.9875	576.724	537.3618	507.489	486.1614	450.7291	415.4525	377.4271	339.4748	307.556	271.5512	243.3254	219.7558	194.655	173.1525	152.4696	134.6253	118.5753	107.1415	94.4829	79.7437	68.5953	55.6032	48.6345	43.1302	35.9187	33.3677	33.1048	19.1233	6.2414	0	0	0
488	1003.3053	940.3289	900.5563	902.6447	850.9174	811.2165	741.6209	688.7736	650.2186	610.5868	587.5469	573.0697	567.8758	558.7732	572.8113	584.4226	603.1252	610.1635	612.0576	606.0095	596.0902	566.4744	534.593	502.3623	476.4193	450.3856	414.2609	377.2877	337.8763	305.8722	274.0933	244.5459	222.2262	196.9617	174.7291	155.1537	135.9941	121.5133	109.3094	95.0825	81.0064	70.4251	57.9407	52.2439	44.1722	36.6819	32.2694	38.7446	27.5299	12.5973	0	0	0
490	978.3625	922.0971	891.6615	889.5597	839.7864	795.148	749.2394	695.8052	650.6698	601.3139	585.1301	567.6484	555.4635	555.4205	558.841	582.4849	583.2738	602.7479	606.7873	603.6241	587.981	562.9961	534.6842	500.969	474.9301	446.2907	410.6347	373.4958	340.8958	305.5209	273.1574	245.0055	223.5328	200.0667	176.3065	157.0845	137.366	124.4853	111.1184	96.2343	84.4033	74.1136	61.4093	52.7738	46.3551	40.2709	35.2638	35.9387	36.0881	19.0679	0	0	0
492	953.8332	908.4076	883.3481	859.6165	824.9038	799.3848	741.9689	675.8137	637.5333	605.6423	575.3272	567.4918	551.0152	549.8132	548.6822	565.757	583.3193	591.7874	594.2903	593.5169	577.5103	558.4409	526.9862	493.2914	469.5115	440.6028	412.4846	375.0253	335.4651	300.9516	274.7287	242.2306	226.9551	203.6063	178.0548	158.7846	140.612	127.6123	112.9946	100.7772	88.1468	74.4005	63.9236	54.8528	48.5017	40.959	36.8283	35.5115	44.8408	24.7605	6.4125	0	0
494	928.706	898.4174	874.7097	852.825	816.3457	779.709	742.9235	686.472	639.5684	604.358	579.2029	551.4188	544.8307	537.517	551.9144	555.1509	565.801	578.6476	589.8309	586.1453	572.8161	553.6918	520.0365	489.6312	468.205	441.9952	408.0426	372.9392	338.2096	303.6515	274.6958	246.2777	227.396	202.8809	181.9155	160.4883	143.8957	129.1995	114.8864	102.2765	89.1444	75.3905	67.9267	56.6841	49.5764	42.5633	38.8991	34.7991	37.007	29.6353	12.9518	0	0
496	902.7009	887.7959	861.5648	837.2662	804.3838	763.4252	736.3744	664.8784	629.4516	595.1987	563.9969	551.3834	540.0827	535.0973	537.9511	548.9027	559.5061	564.5799	576.3184	576.4322	561.6958	543.5178	510.0635	483.83	460.6009	437.8097	405.136	371.2835	338.7815	302.5608	274.1413	246.18	226.8416	201.8899	186.5555	162.146	146.379	129.9582	116.7583	103.9657	92.7382	76.8593	68.7633	59.1355	51.5057	44.3799	40.0349	36.0181	33.2097	34.59	19.6124	5.8519	0
498	875.8561	867.1336	839.7694	821.0455	815.4207	753.0853	713.5066	670.8095	625.1415	581.2393	565.8051	548.6905	527.8582	528.9862	525.2785	540.9747	557.6884	561.1913	561.6538	559.8432	553.9418	527.3693	501.5066	475.6447	456.5476	429.4807	400.1449	368.3137	334.979	304.646	274.1136	249.2199	226.1028	207.5622	186.7648	163.7577	147.2384	130.6697	118.6097	104.5933	93.4854	79.7914	71.9975	61.469	51.3574	47.2894	40.5407	36.4465	32.4514	39.6204	26.9734	11.8101	0
500	847.2992	842.365	817.5042	804.4346	791.8165	743.2699	700.4554	668.6346	616.1369	577.7787	552.4265	535.6284	522.8474	522.8995	520.0743	525.9614	538.8009	549.188	551.1208	549.1476	538.8812	521.7732	494.7473	470.414	448.4163	427.0215	397.0953	368.2536	327.8174	299.942	274.159	246.745	227.2134	206.7778	187.2814	165.4325	148.0901	132.6418	119.832	105.2159	93.8409	82.8125	72.0038	64.1684	55.4072	47.4614	42.5742	38.5993	32.0573	36.0144	34.4652	17.8748	0
502	860.1364	816.8418	796.4045	787.1917	777.4314	739.7047	699.9705	662.7338	620.8355	576.5438	548.3569	528.0127	520.4381	505.9661	512.2814	520.5648	524.3534	537.5808	535.9504	537.9279	529.3699	509.7185	482.6234	455.9011	442.1581	416.6844	390.7908	359.8296	329.8831	300.4145	273.5122	244.0038	231.5024	207.8349	184.3167	167.9235	148.89	134.588	119.7229	105.8019	95.9102	84.0441	73.5711	65.0656	55.9177	47.9598	44.4709	40.4458	33.1843	32.6431	42.0752	23.1783	4.8137
504	777.7927	790.8409	776.772	769.5777	747.5441	727.8501	687.4714	639.1171	609.0163	555.6792	540.5327	515.8578	508.5049	497.5051	500.4117	499.1439	523.5052	525.1663	527.9402	523.9841	507.4798	502.6874	474.0482	451.1378	434.3542	412.4214	391.4666	355.7121	322.8989	295.9566	267.328	243.6812	226.2491	205.8139	188.2291	169.9089	149.6824	135.2395	119.5954	106.3831	93.1719	86.4746	76.4934	68.1268	59.5565	47.8763	45.5604	41.4223	34.5671	32.6942	34.5612	27.7016	9.7093
506	764.3488	765.2954	757.6621	732.0074	730.0663	709.2316	691.9976	633.7067	602.2359	551.0743	530.0554	518.2665	496.6479	488.3865	486.4775	497.5054	502.8039	508.0788	515.0408	517.875	498.6706	492.9547	458.6864	440.6737	423.3769	405.6664	379.933	352.0821	320.5743	295.0887	267.4128	240.6601	224.6219	206.4729	184.2943	169.0767	150.6451	135.3833	120.4206	107.085	93.8959	89.7074	78.1121	68.7817	60.6429	50.6893	45.2594	41.9343	36.5605	33.8317	33.0671	32.336	14.7042
508	713.1213	740.0857	710.8405	715.806	713.013	703.4963	677.9525	619.6754	594.7336	548.4423	528.8323	507.8899	488.7127	478.5437	480.6008	484.8622	496.3738	506.6824	505.8254	497.1867	492.3314	478.1646	452.9906	430.1982	418.6121	399.4362	373.7446	346.7422	312.0943	289.5288	262.8844	240.8029	224.8552	203.6938	187.8847	169.3365	151.0258	135.6643	121.3818	107.2394	94.7271	88.9707	77.1614	71.997	62.3318	53.1812	46.1197	43.8749	38.4249	33.9843	31.8877	37.0969	19.8157
510	703.0699	681.3073	692.0478	699.1306	695.4714	695.1618	659.7835	624.2474	581.3396	535.3269	515.9877	493.7696	478.1516	467.0034	464.2851	472.4173	474.2136	489.3664	492.6895	485.85	481.5846	466.113	444.0168	428.7555	415.9748	393.8481	369.1952	341.4561	309.706	284.4751	263.0409	237.0496	221.8773	203.2254	185.5185	169.2039	151.1211	135.9215	121.9969	107.0364	95.5552	85.9241	79.655	71.8837	64.8627	55.9335	47.6959	43.9021	39.9048	35.9756	31.5656	32.9216	25.0325
512	692.5746	721.2532	672.6623	680.441	677.3558	669.7688	635.9528	596.813	563.9377	528.708	507.6307	485.7851	466.9714	460.9002	454.7755	462.651	466.8836	476.4669	479.7073	477.6168	470.4024	457.2546	432.8922	420.5051	403.9542	385.8724	362.0472	335.0247	304.5808	279.2333	258.4728	235.9678	217.4726	201.86	185.5209	166.4083	148.818	136.1372	121.8966	106.793	96.3678	86.4132	80.0913	72.5877	65.1811	57.8675	48.0279	42.5763	39.853	36.7698	31.2146	30.4203	30.3509
514	681.732	699.6338	652.7804	659.7992	658.7637	662.0776	629.389	593.1238	557.9232	525.4376	493.8054	470.3505	461.0047	458.8366	447.3366	454.1821	456.5766	465.1892	466.0572	464.6574	453.4726	438.612	424.9502	409.8774	395.3818	377.4316	357.8094	330.2702	302.4631	277.7812	256.534	233.4084	213.6655	198.6718	182.986	166.3148	150.5246	137.2799	121.7693	107.7068	96.7301	86.8945	80.3629	74.709	66.8181	57.8433	50.0648	44.136	41.031	37.7525	33.0629	31.153	31.082
516	671.0729	681.4622	632.9036	639.1541	651.1323	643.4544	638.3084	574.5071	541.0413	514.1605	488.8524	466.2832	451.0905	435.7521	439.0668	439.8969	445.7425	455.0267	455.2095	447.1879	440.0047	430.2792	415.1487	399.8766	389.3622	370.4398	346.7279	324.2118	293.6572	274.8598	252.2444	228.6219	215.2134	194.8338	180.5244	168.683	150.5274	136.2329	121.7085	108.7008	96.2512	87.4352	80.0081	75.1803	67.6287	59.3809	52.0708	42.6478	40.4563	40.4369	35.1108	31.276	31.2047
518	660.5548	637.8587	612.9698	631.5471	633.9113	624.8037	621.2274	574.6489	530.4652	509.697	481.084	460.217	445.3322	426.4717	433.9608	429.9525	439.2892	444.6606	437.7542	440.4119	437.279	421.8024	403.4261	389.6064	375.195	360.3851	346.2016	316.2285	290.9773	268.0309	243.8444	224.643	211.9549	194.1939	181.0837	165.4667	151.3196	136.8496	121.7111	108.8522	95.8128	88.0342	80.9148	75.362	68.1941	60.9108	53.784	43.3264	39.0662	39.3598	35.2329	32.5003	32.4262
520	649.6352	549.0027	604.83	611.744	616.1623	605.6001	598.5862	567.8559	526.8902	496.6707	476.8275	452.0139	434.5587	416.3106	420.0688	430.2577	427.6792	424.7495	427.6723	427.656	423.7028	412.1459	398.9402	376.0234	371.4811	357.5918	334.8132	310.4987	286.3535	266.5714	243.686	220.0193	210.3093	192.174	176.4446	161.5587	151.3053	137.3042	121.6825	108.5126	96.49	88.6244	80.8789	75.8824	68.08	60.5322	54.7336	45.3725	38.2592	40.0581	36.3238	32.9588	32.8838
522	638.2734	544.4574	603.1245	591.3388	596.0541	585.807	586.8329	544.146	517.4109	492.5378	466.3521	450.3329	429.3425	425.517	414.0976	412.372	408.0119	422.0158	418.7485	413.123	418.2344	402.1529	382.0407	373.3106	358.6918	345.5045	331.2539	308.8717	277.4624	262.9242	241.9597	219.9069	206.3734	192.0921	177.2003	160.3179	147.0649	138.7302	121.9824	108.1314	97.1521	88.2907	80.8168	75.5459	68.0145	61.52	56.7374	49.1924	37.2235	39.4818	36.7061	33.4491	33.3728
524	626.5151	539.6791	571.0491	570.3782	573.5855	565.4709	575.7329	536.4725	504.9428	479.147	447.2425	431.8009	417.8776	406.4214	402.0876	401.7475	397.1618	406.5624	412.8548	404.9094	397.9105	392.5377	371.7848	361.1084	351.1271	335.1574	322.8708	302.4624	276.3271	254.6383	236.5047	216.2433	203.7327	190.1405	174.0137	159.6283	146.9513	137.5166	122.9499	107.7156	97.3444	87.4687	80.7337	75.1259	69.1413	63.0861	57.4424	49.236	37.6869	37.8787	36.4599	34.3968	34.3183
526	614.7872	535.0372	572.0727	549.2444	550.9182	551.7493	554.5381	521.491	496.8765	468.3628	448.0821	424.1102	407.3512	398.3278	396.2767	388.35	395.7305	394.27	399.4177	395.347	385.0983	380.4363	365.0418	357.8419	341.3881	334.3428	316.3625	297.423	270.1627	250.8099	234.2984	212.9032	198.0596	186.7487	170.1714	157.8938	144.4637	133.0329	121.061	107.3376	96.6516	86.6667	80.6841	74.7874	70.7936	63.3652	57.7158	52.2315	40.1781	33.5631	36.8233	34.1682	34.0902
528	603.0512	530.5093	574.6273	527.8825	533.783	536.9873	533.1166	521.8446	486.9119	454.3952	434.0692	413.075	399.9833	389.4836	380.8813	383.4699	385.703	385.6926	384.6854	385.8005	377.901	376.0953	359.9025	351.0723	335.9507	323.0977	310.1236	291.0719	266.7509	248.4408	224.7749	214.0749	194.9479	182.6579	168.6752	157.9649	144.1735	128.7345	118.836	107.1327	95.9816	86.7263	80.4161	74.4714	68.9858	62.2248	56.9364	52.7579	42.3724	30.9617	35.5922	34.2925	34.2143
530	590.8696	525.7191	495.4204	506.4173	516.6964	521.7347	511.0696	511.5309	482.4249	453.7555	431.0494	413.5782	392.0284	381.1752	375.3433	373.229	367.1414	383.2691	374.9033	375.2925	365.84	362.7458	353.0316	336.9497	332.0752	319.4419	304.2152	286.7983	263.1236	244.8015	225.0242	205.3443	190.3749	181.3443	168.0317	153.9922	141.4404	130.4306	118.9055	108.1687	95.2681	86.7625	79.6127	74.1263	69.2379	63.5594	58.4957	52.9956	44.7295	33.2701	33.6087	33.2057	33.13
532	578.3324	520.7464	412.6832	509.1403	499.161	501.8076	488.4758	490.6034	478.2386	439.7917	420.7875	408.3049	383.2844	365.1259	362.6014	364.5084	359.8744	364.7855	361.9666	367.1382	362.0794	348.1486	338.2168	329.2619	318.2822	311.1661	298.5516	274.6538	254.2438	235.5241	222.758	197.8453	191.1346	177.8903	166.2198	151.6088	139.7911	128.6107	117.7582	106.7736	94.5247	86.2787	78.7795	73.7633	68.5573	62.0344	57.9085	52.1509	45.5874	34.5369	29.8697	33.3868	33.3108
534	565.3467	515.5087	428.5457	510.9714	481.0964	477.001	465.2557	481.6198	464.8763	433.405	420.3052	393.7978	368.4245	365.0783	359.9821	354.69	353.4883	354.3369	357.5584	357.8156	350.6113	346.6907	333.6333	319.9319	314.2713	303.7888	292.3608	271.2984	251.2764	234.3457	215.6344	199.5442	187.6853	172.5282	160.0987	151.4017	137.2129	127.377	117.6001	103.072	93.7372	85.5016	78.4592	73.3709	67.6532	61.0699	58.6623	51.9528	47.6213	38.1162	27.3164	31.8219	31.7494
536	552.2038	510.2737	444.9186	476.9545	462.7469	451.7757	459.2242	465.5509	444.1931	424.5576	402.0442	377.5915	368.0995	352.6995	339.4455	345.7591	344.3258	346.5013	347.9731	346.8215	342.6717	334.9083	324.8632	312.5378	304.5156	298.8193	282.7122	261.378	241.6327	227.4907	213.9473	194.6988	181.5906	169.4528	157.9167	144.3432	136.7552	125.2064	116.245	104.1274	94.2351	84.7264	78.1501	72.3559	66.7436	60.9911	59.0206	52.6995	46.2261	38.0492	26.8407	30.5908	30.5212
538	538.8734	472.6228	461.8212	487.8581	444.0768	448.7836	449.1369	449.2108	438.7785	410.8446	393.115	380.4509	359.458	346.2113	339.2282	333.6565	340.6302	331.2483	334.8417	338.8465	332.3769	323.6738	316.4049	302.6594	299.7398	289.5233	279.5999	262.6282	235.878	223.145	209.3236	191.6179	177.6044	168.7839	154.4861	144.7334	133.2118	125.2822	114.4814	104.7114	91.3583	83.9501	77.5339	71.0121	65.826	60.9214	57.4937	53.7532	47.7221	41.8954	28.059	25.4416	25.3837
540	525.0571	491.0026	479.0289	467.5371	444.3246	437.3607	438.666	432.3472	444.5161	399.7958	391.5587	371.3557	350.1732	341.9922	327.823	330.499	329.6218	329.5131	332.2518	325.836	325.7967	314.9628	308.9508	299.8711	289.5037	285.5811	272.3933	253.9051	234.5575	219.2812	204.1161	185.9919	176.3272	163.0684	152.9155	141.7393	130.3176	120.4242	112.3435	101.405	91.9806	83.1285	76.2384	69.6128	64.8651	60.1314	56.7931	52.606	47.0179	42.7897	31.3014	21.2192	21.1709
542	511.9752	482.2326	445.1695	412.652	442.6768	426.5445	425.2918	415.9484	423.0532	389.4456	379.44	364.829	343.343	330.6416	320.6642	315.3163	318.8552	321.7143	323.274	319.0031	316.9246	314.599	300.9754	292.8996	284.0681	273.2223	264.8478	250.4532	228.8393	214.3383	201.7646	184.6454	173.267	163.8371	152.8858	140.5987	129.8312	120.536	112.9215	100.8144	94.1158	82.388	75.0629	68.8435	64.1156	59.4423	55.2214	51.121	47.8954	43.8842	36.2643	21.2222	21.1739
544	572.3449	469.845	371.3729	287.7513	436.8066	415.2436	407.7824	398.9221	416.0738	393.5575	371.9623	357.3286	342.5605	328.9315	318.8077	313.8879	308.7259	312.0462	316.0396	310.6705	306.8254	299.1441	290.3868	284.1075	277.2426	276.3297	259.1241	237.2764	223.2051	208.9908	194.114	180.8901	171.9106	157.0055	148.0768	137.9002	128.2715	118.8682	109.3054	98.1353	91.0915	82.2479	73.8219	68.023	63.5315	58.7082	55.3231	52.8068	47.0044	43.2447	35.9923	23.1339	23.0811
546	605.0582	488.8728	378.4191	315.4779	443.6631	403.2348	389.4154	398.5237	402.2593	384.9832	367.5451	341.2063	329.444	314.9584	308.2162	307.823	305.2297	306.9694	303.8013	303.5827	303.5807	296.8624	289.0945	276.6737	269.2344	262.2551	254.113	237.3554	220.0021	204.6889	193.8546	176.2795	168.2819	155.9735	144.7778	136.7573	124.95	115.7482	108.5345	97.7177	90.9777	80.5531	72.4757	67.3296	62.8704	57.8976	53.2899	52.6692	46.8034	42.6286	38.0991	26.0361	25.9767
548	548.095	486.9005	375.7383	343.7281	412.6129	390.5497	395.8766	385.0019	387.7255	375.5782	342.0563	340.1292	321.6952	305.8754	299.8892	295.9353	298.1333	302.4208	299.1815	293.7896	289.8111	286.4968	275.2927	266.5745	263.9814	259.7737	248.6773	232.4239	215.072	201.1358	186.8933	174.735	162.9647	149.8795	139.2572	133.6116	123.2363	113.7894	106.9322	96.0016	87.469	80.4587	71.0283	66.6657	62.0612	57.0129	52.7389	51.1245	45.2346	42.9913	37.3119	30.5294	30.4599
550	622.464	484.7153	390.055	372.669	408.2677	405.1202	381.5261	371.0226	372.7102	369.6633	346.1218	328.5245	310.4248	301.2431	297.9682	293.3846	290.9341	284.5645	286.3905	287.0955	285.8738	275.4409	268.0027	257.3811	257.644	245.6708	240.3098	227.3502	209.9567	196.4265	182.3026	168.6415	157.258	151.3257	139.0331	129.5786	120.718	110.3481	105.0864	94.913	85.8465	80.049	73.6319	65.963	61.2108	56.0208	52.1566	49.2957	46.0755	42.7695	38.0243	32.8097	32.735
552	524.2085	483.7023	423.2963	403.4575	385.6145	392.3948	367.7558	357.1923	358.2358	363.4404	341.6222	321.8791	308.2149	295.2345	279.5684	280.0913	281.2639	286.1593	280.5792	273.972	272.1474	273.5494	259.9891	255.6918	246.975	246.401	233.469	217.2949	202.7902	191.5147	178.2457	164.1022	157.9692	146.0797	137.6801	126.1137	118.3885	110.2713	101.1907	93.8873	85.8415	78.7339	71.076	65.405	60.4558	55.1069	51.6879	48.1869	45.6696	41.8962	38.0478	33.4288	33.3527
554	568.1198	482.4277	425.7089	376.7641	334.3285	368.3348	353.4068	342.3685	343.1674	361.3068	333.7634	312.6117	303.0304	285.3625	278.4975	273.2697	270.5725	277.2758	272.2597	273.0794	265.525	262.4169	251.5254	246.9073	244.2929	237.8335	228.8274	215.5478	203.2978	187.6564	172.8804	160.9661	151.7968	142.4851	134.416	126.9251	114.6189	107.5286	98.5116	92.3939	86.3303	77.4641	70.9302	64.7992	59.5817	54.1393	51.1806	47.2235	45.7602	42.8954	38.1592	35.2703	35.1899
556	571.2321	467.9988	364.7865	277.2458	202.5419	373.7616	338.6069	327.0817	338.8436	345.9495	325.8823	313.5881	296.9022	275.3252	275.376	266.043	265.934	265.8054	269.5919	262.8008	259.4664	254.807	250.151	240.5138	238.9972	232.6123	221.4972	207.5959	192.6477	182.7059	173.1159	156.9907	151.0643	138.954	132.294	121.9467	113.1205	104.2585	97.7167	90.6056	83.1453	76.0164	70.4224	66.9156	58.6759	53.6775	50.4288	46.2266	43.9523	41.1079	36.7306	34.2048	34.1269
558	515.0503	484.7034	372.0122	276.5847	230.1503	360.0156	323.3358	320.5298	325.6423	330.1046	315.4043	295.1734	283.5607	265.7972	265.3225	261.3119	260.8547	258.9298	253.7979	260.9152	252.6426	249.8166	238.1927	235.2179	229.0942	227.3843	214.3477	201.5353	187.6617	177.9875	168.1891	153.3172	145.4096	135.6701	128.984	118.6138	111.97	103.4288	96.2079	88.7815	82.3366	75.786	68.5102	62.5859	57.7363	53.196	49.1926	45.1943	42.6219	41.844	37.6319	34.5481	34.4694
560	564.1885	495.8356	365.1416	269.3153	258.576	348.441	314.0751	306.9489	311.8962	313.6389	315.7792	287.5787	276.9082	265.7957	256.0141	255.0807	254.2333	248.1896	247.3342	246.6734	245.0321	240.7952	234.7334	223.5273	222.814	224.133	212.5631	200.1662	184.4118	171.7063	160.3255	151.5094	141.3549	131.9691	125.6175	112.8996	108.9742	101.6556	94.8894	88.1407	78.7319	73.6367	67.5309	63.2859	56.7406	52.2186	47.8952	44.1089	39.9454	40.8779	37.6445	34.541	34.4622
562	512.5709	454.9713	357.8815	281.2297	287.8124	348.1781	318.0895	292.8183	296.4442	296.5417	302.4627	283.9029	269.5063	254.1898	249.6327	244.1107	247.4291	244.9095	241.4531	244.5377	238.3762	235.7014	223.0884	221.0357	215.1211	211.5242	205.0794	191.8578	179.0606	168.0497	157.7411	145.9824	140.0996	127.9852	119.3904	117.1527	104.9549	98.9067	91.2148	83.5968	79.4018	71.7992	65.6658	60.2267	55.6863	50.9539	46.8205	42.9687	39.7087	38.6614	36.0933	35.1725	35.0923
564	502.778	410.231	350.2505	313.2701	317.877	319.5303	302.6584	278.1559	279.2586	278.8315	297.2261	274.917	256.1697	245.1337	241.8079	243.9019	235.4447	233.1594	234.4886	232.5635	234.5556	226.3001	219.8113	210.2039	208.9948	205.6616	199.5487	185.7956	174.2995	162.1961	152.4188	141.4252	133.2843	125.2533	117.5086	110.8454	103.4566	96.5479	87.9538	80.3607	75.2367	70.6178	63.7068	61.347	56.8306	49.6293	45.6932	42.2197	39.4474	37.9568	36.7461	33.8703	33.793
566	485.1171	444.825	342.4606	309.2823	280.3517	253.6909	296.8992	263.1258	261.6374	281.9622	286.6464	273.5366	257.7901	244.1856	234.0048	226.2059	233.3372	220.2726	225.1549	226.7406	222.3139	222.1037	210.0635	206.3083	206.8498	199.0378	192.7932	184.9578	168.1242	157.4788	148.8486	139.9101	133.5169	123.5522	116.273	110.0044	100.9201	94.792	87.9048	80.3073	73.0616	67.9523	63.1906	60.1286	56.6071	48.2742	44.7647	41.6812	39.1854	37.2499	35.3919	32.1828	32.1094
568	464.3344	443.855	392.6397	299.3652	219.7999	150.7265	293.969	247.6945	272.8471	268.2383	275.7951	265.4223	254.0214	238.8838	224.7967	216.7029	222.219	223.2618	218.6596	218.9551	214.0293	213.4031	203.8423	200.0768	196.9588	194.6844	190.7746	178.1112	163.9987	153.182	147.6616	133.4965	126.7829	120.282	109.3491	107.7553	97.3868	94.3159	84.8103	78.0853	72.4824	67.2976	63.9087	57.2098	53.1782	46.8848	44.2697	41.1324	38.9213	36.3678	35.9455	32.9313	32.8562
570	470.2894	414.666	382.3068	293.6614	217.9922	179.3572	285.797	266.8798	259.0906	253.9799	264.4875	262.6337	242.4351	230.8934	226.2851	220.0241	216.994	214.8879	210.8214	216.1975	207.383	208.0937	201.6901	194.7528	188.6014	186.2869	182.5305	172.2648	160.3002	149.0647	138.6977	132.756	122.6117	116.1733	106.5347	103.2542	94.2176	89.2212	82.5438	78.012	70.3981	66.7191	61.6609	55.8496	53.0227	48.1722	43.7385	40.8725	38.5414	35.4414	33.1876	32.088	32.0148
572	415.7012	409.0063	359.1349	297.7816	220.8617	209.3074	287.9538	269.5169	245.3407	241.4872	253.2698	266.0701	232.4299	224.268	216.3052	209.7589	209.4377	210.1778	209.5386	205.4397	203.8789	198.9476	195.9047	185.3137	184.321	186.5756	176.8737	168.1552	155.9518	144.5389	136.2056	127.2859	120.309	112.6033	106.8604	99.2778	92.7772	87.1594	80.1948	73.6947	68.3134	64.7301	59.6076	55.7433	52.6925	47.9618	43.2632	40.6726	38.0325	34.5441	32.1827	33.1411	33.0656
574	465.1701	397.4572	355.6918	301.8699	238.992	240.2521	272.2572	251.8405	230.9931	230.25	241.5305	267.1597	231.319	222.9788	212.4046	209.3867	205.0213	203.9554	201.87	201.8205	194.8197	186.7796	187.93	183.5517	180.1439	182.6183	172.008	162.7057	149.2044	138.4143	132.7205	124.9032	117.3973	108.633	100.7034	96.8576	92.3566	83.9964	80.7002	72.8582	67.3658	64.6883	59.6283	55.6444	51.6621	46.4157	42.7464	40.2572	37.4841	33.5961	29.5861	30.8212	30.751
576	431.1804	390.4244	362.6411	305.9214	273.2218	272.1959	275.8594	255.2127	216.0469	218.5116	249.7374	256.4559	225.6666	214.3926	210.5598	202.4104	201.3602	200.4541	195.3215	194.4942	193.8722	188.5875	179.8221	175.5275	177.0773	174.4697	167.2579	158.3385	148.1089	139.4548	129.2252	123.8429	115.0464	108.6165	100.0594	95.584	88.8374	81.3806	76.3556	71.3581	65.5467	63.5699	57.5646	53.7908	50.6037	45.5275	42.1876	39.7106	36.5535	32.5967	29.232	30.6323	30.5625
578	445.6586	354.976	367.1091	309.9361	273.2066	239.9727	215.069	249.1299	200.5055	233.434	237.8684	245.2641	224.4924	212.5439	200.281	196.6706	197.5324	189.2412	191.4576	185.2082	186.9043	182.5272	178.7057	172.321	168.1545	168.651	162.066	153.192	137.2113	135.0743	128.2411	116.9339	111.3546	106.6929	98.1108	91.6905	87.4872	79.7543	77.6875	70.8209	65.6501	62.1759	56.8306	52.3702	47.9207	44.9043	43.1252	39.1237	35.5718	31.8096	28.8499	28.7345	28.669
580	415.6421	332.5459	323.5014	321.8549	252.2457	191.3349	141.6599	236.3767	222.1885	221.6954	225.5005	233.5897	220.8453	204.7331	192.6089	189.9014	190.1471	184.0243	187.3723	178.7161	181.2865	178.6108	171.5478	174.4143	165.2342	162.8382	155.8332	150.7969	138.0036	128.1998	120.4876	114.6201	109.3667	104.3274	96.0156	90.7077	84.4938	79.3427	75.7556	69.5641	64.7294	57.2985	54.5617	51.4903	47.8335	45.9394	41.727	38.4972	34.673	31.114	28.4403	28.5317	28.4666
582	420.591	359.8559	317.516	296.3012	235.9328	182.9445	157.3814	242.4055	217.2133	209.542	213.3465	221.4993	225.454	199.3802	189.0106	179.5221	184.1096	183.6137	181.44	174.9061	173.143	172.3784	167.357	163.8749	159.4646	155.7045	153.9017	147.4428	136.3239	127.1125	120.7494	109.0544	106.907	100.0105	92.7271	87.9879	83.8841	77.8453	71.5239	66.8254	61.9047	57.3468	53.2403	50.6136	47.1337	42.839	40.1747	37.8421	34.0089	30.3893	28.0113	25.6617	25.6032
584	411.7084	328.7427	312.0913	288.0167	235.0328	181.5675	173.5521	236.0947	206.1263	196.9042	201.3641	208.9202	228.4305	197.7103	186.2452	179.1189	179.5336	174.1553	168.9418	174.3264	173.2847	167.7797	159.8783	158.0171	152.9642	154.8396	148.3521	141.5703	128.5798	122.9187	115.3643	106.3031	102.4967	96.8971	90.2833	86.4531	78.6013	75.4654	70.7793	65.3001	60.4203	57.1687	52.5698	47.9771	46.1734	42.5947	39.2774	36.4779	33.3062	29.9694	27.5542	23.723	20.1269
586	375.753	290.8226	287.0388	274.4984	233.949	189.5663	190.1432	235.8553	198.546	183.754	188.8852	212.1969	219.6693	193.3474	187.0138	176.3001	170.4912	170.3392	165.3069	160.0771	168.3058	159.8926	156.1158	154.5555	150.5036	145.6095	142.94	140.5834	127.0039	121.3333	110.3141	102.15	99.5559	96.2634	87.5448	83.0311	78.4283	73.6488	68.5857	63.2439	58.6609	55.985	49.8725	49.37	44.6932	41.5474	40.5381	35.7353	32.5596	29.5167	26.942	21.708	17.2452
588	365.5006	294.0872	295.552	279.7226	232.6838	207.3951	207.1499	212.9476	194.7898	170.1012	192.3967	203.135	210.5077	191.6227	179.1122	168.8124	169.257	169.0346	165.6588	160.7028	156.3567	156.7325	154.5592	150.474	147.3287	141.9648	140.2111	133.6798	123.3582	117.5016	112.1128	104.9501	94.7452	91.0801	85.4476	81.1128	74.9605	72.354	67.2955	63.0935	56.922	55.8368	48.7742	47.665	45.4314	41.2628	40.0908	35.0414	31.7697	28.9692	26.2317	19.618	12.3128
590	349.2909	277.0202	278.7551	263.4314	231.276	209.0256	193.1375	184.1388	188.8942	173.8743	183.3825	193.7176	200.9844	187.6169	172.7796	168.2762	163.0508	159.1792	159.1886	155.7969	156.4959	149.8153	143.0412	142.0304	145.1236	138.0694	136.9475	130.3707	119.4134	113.0257	105.7025	100.2578	94.7862	88.6216	82.5418	82.0639	75.3127	68.4286	65.3235	59.2447	55.2988	52.8221	48.0465	47.26	44.2176	39.8754	38.396	35.0855	30.9419	28.2659	24.8287	17.4568	0
592	320.1372	288.4215	291.9239	256.3234	252.1874	199.4424	156.9579	122.5376	177.3175	184.8665	174.6619	184.6732	191.7957	195.1277	174.576	161.1456	162.6747	157.6872	156.999	152.7426	150.47	146.8116	141.6603	136.55	138.2082	138.0096	133.5872	126.4276	114.4403	109.8232	104.3495	98.2615	93.2868	87.6442	85.6045	76.2659	72.1641	66.4028	61.2453	59.0872	55.5716	50.4185	48.1537	45.2372	42.6332	39.847	37.7192	35.3645	30.6098	27.6291	22.786	16.9539	0
594	358.3542	289.7637	274.6498	249.0772	260.256	201.939	153.1779	139.2908	196.3757	170.3785	165.5153	175.2449	182.1533	194.5305	170.701	162.322	156.8409	152.8586	149.1649	147.9668	147.3047	142.5036	138.9235	135.2715	137.9454	132.0381	129.6576	123.7647	114.6484	109.1908	102.1343	97.4429	91.1957	87.3514	79.4291	76.9316	69.4365	66.9892	60.4989	57.7051	53.8394	50.5426	46.8953	43.1599	40.3893	38.2529	36.6886	33.6936	31.0553	26.9509	21.112	0	0
596	368.7503	306.4102	229.2618	251.6933	254.1987	192.4332	169.4258	156.651	195.5055	179.0837	156.0111	165.4472	180.71	184.324	163.9962	160.5079	150.8825	148.2953	149.628	148.3961	142.1611	142.4363	135.6262	133.8148	127.5555	126.953	125.2903	118.8544	112.796	102.8978	99.2117	93.8021	86.3606	83.0938	76.7125	72.7179	68.7216	64.4701	59.4928	57.1083	51.1172	48.3831	46.9625	44.5881	41.0844	36.8895	37.3396	33.0271	30.4082	26.2427	21.911	0	0
598	312.9563	305.1362	230.5935	245.9393	242.462	208.6099	188.0636	174.6401	198.2777	161.5528	146.1342	163.18	170.1166	173.7144	162.9792	156.1855	148.7726	144.0251	144.7078	144.3646	140.9973	137.6038	132.6347	128.611	126.4557	128.2177	122.452	114.8413	106.7221	100.7351	97.1083	87.4828	84.6521	80.9461	75.6794	70.557	68.0508	61.8305	60.4098	53.4695	51.9115	46.2006	45.1207	41.3978	37.7684	36.3772	34.6453	32.2333	30.4743	25.5087	0	0	0
600	380.1229	290.0061	253.4854	248.5885	258.7195	229.1751	207.2893	193.2	186.8041	161.4525	143.0548	152.347	159.0387	162.6174	166.0342	152.293	146.7826	144.2993	137.6178	139.6612	137.8103	131.4912	132.3525	123.7945	120.6428	121.4201	119.5941	112.3621	105.7824	98.3144	96.9386	87.2784	85.0321	78.5408	75.4495	68.1897	64.1995	61.8422	59.1159	52.3588	49.582	45.2733	43.4346	41.8574	39.5489	36.0267	34.3885	33.7757	30.247	27.2301	0	0	0
