Description	EOS-15																																																				
EEM type	"Dilution- & Scatter-corrected, Calibrated Data (ppb QSE)"																																																				
Scan date	10/1/2013 13:17																																																				
Excitation	240-500nm by 5nm																																																				
Emission	290-600nm by 2nm																																																				
Calibration	Michael_Fluoromax4_April08 (07-Apr-2008)																																																				
Slit settings	"5nm Excitation, 5nm Emission"																																																				
Dilution	20																																																				
Row 1	Excitation(nm)																																																				
Col 1	Emission(nm)																																																				
Data	Fluorescence(ppb QSE)																																																				
																																																					
	240	245	250	255	260	265	270	275	280	285	290	295	300	305	310	315	320	325	330	335	340	345	350	355	360	365	370	375	380	385	390	395	400	405	410	415	420	425	430	435	440	445	450	455	460	465	470	475	480	485	490	495	500
290	0	0	0	0	0	0	0	0	0	0	0	0	0	0	0	0	0	0	0	0	0	0	0	0	0	0	0	0	0	0	0	0	0	0	0	0	0	0	0	0	0	0	0	0	0	0	0	0	0	0	0	0	0
292	0	0	0	0	0	0	0	0.5984	0	0	0	0	0	0	0	0	0	0	0	0	0	0	0	0	0	0	0	0	0	0	0	0	0	0	0	0	0	0	0	0	0	0	0	0	0	0	0	0	0	0	0	0	0
294	0	0	0	0	0	0	0	1.1838	0	0	0	0	0	0	0	0	0	0	0	0	0	0	0	0	0	0	0	0	0	0	0	0	0	0	0	0	0	0	0	0	0	0	0	0	0	0	0	0	0	0	0	0	0
296	0	0	0	0	0	0	1.7995	1.7538	0	0	0	0	0	0	0	0	0	0	0	0	0	0	0	0	0	0	0	0	0	0	0	0	0	0	0	0	0	0	0	0	0	0	0	0	0	0	0	0	0	0	0	0	0
298	9.4101	0	0	0	0	0	3.5493	2.306	0.86	0	0	0	0	0	0	0	0	0	0	0	0	0	0	0	0	0	0	0	0	0	0	0	0	0	0	0	0	0	0	0	0	0	0	0	0	0	0	0	0	0	0	0	0
300	0	0	0	0	0	1.8524	4.6661	2.8419	1.6958	0	0	0	0	0	0	0	0	0	0	0	0	0	0	0	0	0	0	0	0	0	0	0	0	0	0	0	0	0	0	0	0	0	0	0	0	0	0	0	0	0	0	0	0
302	2.9686	0	0	0	0	3.7112	5.2579	4.2241	2.5479	0	0	0	0	0	0	0	0	0	0	0	0	0	0	0	0	0	0	0	0	0	0	0	0	0	0	0	0	0	0	0	0	0	0	0	0	0	0	0	0	0	0	0	0
304	7.8903	0	0	0	0	5.5764	5.8517	5.6109	3.4028	1.2108	0	0	0	0	0	0	0	0	0	0	0	0	0	0	0	0	0	0	0	0	0	0	0	0	0	0	0	0	0	0	0	0	0	0	0	0	0	0	0	0	0	0	0
306	0	0	0	0	0	7.4442	7.2759	6.7286	4.2583	2.4245	0	0	0	0	0	0	0	0	0	0	0	0	0	0	0	0	0	0	0	0	0	0	0	0	0	0	0	0	0	0	0	0	0	0	0	0	0	0	0	0	0	0	0
308	0	0	0	0	0	9.3119	8.6992	7.5746	6.1099	3.6391	0	0	0	0	0	0	0	0	0	0	0	0	0	0	0	0	0	0	0	0	0	0	0	0	0	0	0	0	0	0	0	0	0	0	0	0	0	0	0	0	0	0	0
310	0	4.2308	0.3226	0	10.0297	10.3359	10.1244	8.4216	7.9642	4.8554	1.4221	0	0	0	0	0	0	0	0	0	0	0	0	0	0	0	0	0	0	0	0	0	0	0	0	0	0	0	0	0	0	0	0	0	0	0	0	0	0	0	0	0	0
312	3.9604	20.2503	0	0	1.7777	12.6511	11.482	10.1938	9.4311	6.0368	2.829	0	0	0	0	0	0	0	0	0	0	0	0	0	0	0	0	0	0	0	0	0	0	0	0	0	0	0	0	0	0	0	0	0	0	0	0	0	0	0	0	0	0
314	16.5678	5.195	1.0102	0.5817	0	12.1202	12.8244	11.9464	10.5528	7.6433	4.2208	0	0	0	0	0	0	0	0	0	0	0	0	0	0	0	0	0	0	0	0	0	0	0	0	0	0	0	0	0	0	0	0	0	0	0	0	0	0	0	0	0	0
316	7.6498	21.5231	17.3131	8.7934	7.9916	10.4988	20.5409	13.6343	11.6231	9.2015	5.5787	1.3899	0	0	0	0	0	0	0	0	0	0	0	0	0	0	0	0	0	0	0	0	0	0	0	0	0	0	0	0	0	0	0	0	0	0	0	0	0	0	0	0	0
318	25.7504	21.2674	14.903	13.2343	9.2994	14.5843	22.416	15.2396	13.0497	10.5523	6.8891	2.7461	0	0	0	0	0	0	0	0	0	0	0	0	0	0	0	0	0	0	0	0	0	0	0	0	0	0	0	0	0	0	0	0	0	0	0	0	0	0	0	0	0
320	41.1493	14.9875	13.3001	11.1287	12.1263	15.2434	19.8634	16.8014	14.4378	11.7258	7.9716	4.0687	0	0	0	0	0	0	0	0	0	0	0	0	0	0	0	0	0	0	0	0	0	0	0	0	0	0	0	0	0	0	0	0	0	0	0	0	0	0	0	0	0
322	26.0642	11.8434	5.6898	22.5011	17.1243	17.278	23.4445	22.1055	15.7143	12.8073	8.9833	5.3328	1.2968	0	0	0	0	0	0	0	0	0	0	0	0	0	0	0	0	0	0	0	0	0	0	0	0	0	0	0	0	0	0	0	0	0	0	0	0	0	0	0	0
324	23.1726	26.5303	28.5806	23.6723	14.3301	22.259	23.795	21.4573	16.9381	13.6651	10.0178	6.5509	2.5488	0	0	0	0	0	0	0	0	0	0	0	0	0	0	0	0	0	0	0	0	0	0	0	0	0	0	0	0	0	0	0	0	0	0	0	0	0	0	0	0
326	36.8123	26.2294	23.4615	19.5498	18.9755	20.6968	25.3925	23.8786	18.1012	14.4783	11.0669	7.5188	3.7543	0	0	0	0	0	0	0	0	0	0	0	0	0	0	0	0	0	0	0	0	0	0	0	0	0	0	0	0	0	0	0	0	0	0	0	0	0	0	0	0
328	37.2892	33.987	32.8735	18.3071	21.9504	19.4997	24.0225	26.1629	21.1845	15.2457	12.0653	8.4429	4.9116	1.4428	0	0	0	0	0	0	0	0	0	0	0	0	0	0	0	0	0	0	0	0	0	0	0	0	0	0	0	0	0	0	0	0	0	0	0	0	0	0	0
330	35.3889	37.4631	28.7634	23.3717	21.8193	23.3923	23.7758	26.7845	22.6786	15.973	12.8328	9.3905	6.0219	2.8303	0	0	0	0	0	0	0	0	0	0	0	0	0	0	0	0	0	0	0	0	0	0	0	0	0	0	0	0	0	0	0	0	0	0	0	0	0	0	0
332	51.8805	41.8816	31.7196	25.1064	24.3326	27.7826	23.5647	28.8673	23.7453	16.482	13.4159	10.247	7.6006	4.1179	0	0	0	0	0	0	0	0	0	0	0	0	0	0	0	0	0	0	0	0	0	0	0	0	0	0	0	0	0	0	0	0	0	0	0	0	0	0	0
334	48.1258	47.0085	44.0863	24.6644	23.523	23.8853	19.6379	27.7538	24.579	22.387	13.9389	11.0328	9.0703	5.3206	1.6497	0	0	0	0	0	0	0	0	0	0	0	0	0	0	0	0	0	0	0	0	0	0	0	0	0	0	0	0	0	0	0	0	0	0	0	0	0	0
336	44.4735	52.1194	44.1367	33.8394	22.3823	24.3037	26.0767	26.485	25.7731	22.9014	14.4164	12.3012	10.2565	6.4448	3.1974	0	0	0	0	0	0	0	0	0	0	0	0	0	0	0	0	0	0	0	0	0	0	0	0	0	0	0	0	0	0	0	0	0	0	0	0	0	0
338	51.6343	47.1758	42.1798	32.7134	25.976	26.1259	27.9547	25.9114	26.1205	25.082	14.8511	13.4807	11.1813	8.3757	4.6477	0	0	0	0	0	0	0	0	0	0	0	0	0	0	0	0	0	0	0	0	0	0	0	0	0	0	0	0	0	0	0	0	0	0	0	0	0	0
340	54.5213	47.5132	40.9931	31.3368	31.267	29.639	30.5932	24.8825	29.4801	24.4649	18.8248	14.5605	12.0266	10.1707	5.9991	2.0124	0	0	0	0	0	0	0	0	0	0	0	0	0	0	0	0	0	0	0	0	0	0	0	0	0	0	0	0	0	0	0	0	0	0	0	0	0
342	59.6566	41.6387	42.2288	34.7907	30.3552	31.0943	29.2497	28.7169	29.9863	25.4595	22.8513	15.6251	13.6876	11.6174	7.291	3.9133	0	0	0	0	0	0	0	0	0	0	0	0	0	0	0	0	0	0	0	0	0	0	0	0	0	0	0	0	0	0	0	0	0	0	0	0	0
344	60.6414	48.0737	41.0576	41.6709	33.4965	33.3402	34.8329	29.3847	28.9122	29.0129	23.0043	16.6058	15.2347	12.6968	9.9283	5.7028	0	0	0	0	0	0	0	0	0	0	0	0	0	0	0	0	0	0	0	0	0	0	0	0	0	0	0	0	0	0	0	0	0	0	0	0	0
346	58.8653	46.5723	52.6487	39.3952	35.3236	31.839	33.3642	31.1589	31.2687	29.8992	26.5565	19.5768	16.7118	13.7291	12.4315	7.4001	2.0345	0	0	0	0	0	0	0	0	0	0	0	0	0	0	0	0	0	0	0	0	0	0	0	0	0	0	0	0	0	0	0	0	0	0	0	0
348	89.1722	55.0041	52.1639	44.1279	37.6629	34.772	34.7494	32.6419	32.418	29.8249	30.2866	23.3554	18.1336	16.0758	14.3701	9.0197	3.9678	0	0	0	0	0	0	0	0	0	0	0	0	0	0	0	0	0	0	0	0	0	0	0	0	0	0	0	0	0	0	0	0	0	0	0	0
350	73.2118	62.6278	54.5471	40.8991	38.8079	37.5169	37.9597	36.1348	33.4858	32.1172	28.1662	26.6351	19.4612	18.2852	15.7531	10.7212	5.7997	0.8773	0	0	0	0	0	0	0	0	0	0	0	0	0	0	0	0	0	0	0	0	0	0	0	0	0	0	0	0	0	0	0	0	0	0	0
352	79.3913	69.1717	58.6574	43.1844	41.2849	37.1896	34.9655	36.8338	36.2324	34.3276	32.5551	29.5938	26.6284	20.3612	17.0476	12.3238	7.5317	2.7351	0	0	0	0	0	0	0	0	0	0	0	0	0	0	0	0	0	0	0	0	0	0	0	0	0	0	0	0	0	0	0	0	0	0	0
354	78.9482	67.8342	56.9319	49.726	41.8145	44.3451	41.513	38.3963	39.958	37.0574	33.9042	31.1213	25.7654	22.3007	18.4151	13.8257	10.3439	6.6122	2.0672	0	0	0	0	0	0	0	0	0	0	0	0	0	0	0	0	0	0	0	0	0	0	0	0	0	0	0	0	0	0	0	0	0	0
356	78.0557	77.5841	61.3259	53.1835	49.8371	45.7775	42.9624	41.378	40.8966	38.1806	35.7413	34.0244	30.6151	24.1865	20.8975	17.5836	14.2758	10.3086	6.1249	0	0	0	0	0	0	0	0	0	0	0	0	0	0	0	0	0	0	0	0	0	0	0	0	0	0	0	0	0	0	0	0	0	0
358	84.1379	72.9385	71.9217	58.6202	58.4978	48.5101	43.8411	42.2214	43.2025	39.3934	37.0484	37.0322	34.3167	28.8926	24.4403	21.2143	18.2363	13.8637	8.9294	3.4521	0.1129	0	0	0	0	0	0	0	0	0	0	0	0	0	0	0	0	0	0	0	0	0	0	0	0	0	0	0	0	0	0	0	0
360	105.6038	84.4271	73.2377	66.6942	57.5669	47.5718	45.3078	45.5297	45.3636	43.524	42.1717	39.0474	38.5846	33.8177	27.81	24.8385	22.012	17.2552	12.6499	6.7768	0.6608	0	0	0	0	0	0	0	0	0	0	0	0	0	0	0	0	0	0	0	0	0	0	0	0	0	0	0	0	0	0	0	0
362	97.4068	94.7996	78.3141	66.3584	55.6905	53.2213	49.502	47.1537	48.826	45.5516	42.711	43.1956	40.7528	37.087	31.2254	28.5635	25.3062	20.8671	16.3112	11.1527	4.6544	0	0	0	0	0	0	0	0	0	0	0	0	0	0	0	0	0	0	0	0	0	0	0	0	0	0	0	0	0	0	0	0
364	107.0009	91.5555	80.8295	66.1699	67.6789	55.1136	55.5717	52.5742	51.765	51.5372	48.8251	46.3699	46.4727	40.4676	36.9188	32.161	28.4875	24.8309	19.8529	14.4196	7.169	1.7442	0	0	0	0	0	0	0	0	0	0	0	0	0	0	0	0	0	0	0	0	0	0	0	0	0	0	0	0	0	0	0
366	105.4265	100.1552	92.1362	75.8557	66.2581	62.8425	58.9809	56.8724	55.7791	54.1203	52.796	52.0608	48.8913	46.5485	41.5713	35.6603	32.0466	28.6833	23.2941	17.597	9.6877	4.1994	0.1112	0	0	0	0	0	0	0	0	0	0	0	0	0	0	0	0	0	0	0	0	0	0	0	0	0	0	0	0	0	0
368	129.2863	97.8629	96.3041	85.4749	75.9665	66.4239	64.5155	58.9036	59.5361	57.2586	54.4511	54.6366	52.845	51.6699	46.7711	39.0712	35.7434	31.9724	26.5378	20.6884	13.8968	7.4728	2.0586	0	0	0	0	0	0	0	0	0	0	0	0	0	0	0	0	0	0	0	0	0	0	0	0	0	0	0	0	0	0
370	112.1666	115.4634	100.2678	91.8859	82.3744	71.0048	65.9398	64.046	62.1194	61.073	60.8725	59.3029	56.6922	55.2591	52.3453	45.0968	39.3187	35.1533	29.4676	23.6821	17.878	10.3816	4.877	0	0	0	0	0	0	0	0	0	0	0	0	0	0	0	0	0	0	0	0	0	0	0	0	0	0	0	0	0	0
372	148.1168	119.3779	109.3839	91.8336	83.4936	77.2028	75.3596	66.4804	69.7712	65.9809	64.2676	63.815	60.9254	62.6631	57.7674	51.3554	42.9924	38.214	32.4648	28.3828	22.2139	13.6646	7.3533	1.5956	0	0	0	0	0	0	0	0	0	0	0	0	0	0	0	0	0	0	0	0	0	0	0	0	0	0	0	0	0
374	148.2748	127.156	117.4724	105.1578	95.4849	83.63	77.4005	74.2959	72.5401	73.4391	70.3675	71.7718	69.6327	66.7837	62.9789	57.5852	46.5861	42.776	38.7244	34.64	26.4615	17.2744	10.0561	4.4932	0	0	0	0	0	0	0	0	0	0	0	0	0	0	0	0	0	0	0	0	0	0	0	0	0	0	0	0	0
376	151.2525	130.5243	127.4625	113.0169	94.5803	87.6007	80.8	77.8904	74.7219	76.9521	77.443	77.0473	76.8704	74.1346	68.6679	64.0543	55.5938	48.854	44.8165	39.0441	30.594	21.7701	13.2518	6.3871	0.2457	0	0	0	0	0	0	0	0	0	0	0	0	0	0	0	0	0	0	0	0	0	0	0	0	0	0	0	0
378	167.9707	149.1999	133.0068	120.5474	102.4681	97.2008	87.1487	85.7046	82.435	81.9217	83.2498	82.3874	83.0831	80.0467	75.8254	68.9202	60.3712	54.7428	50.7237	43.306	34.5999	26.138	17.2748	9.1609	3.7277	0	0	0	0	0	0	0	0	0	0	0	0	0	0	0	0	0	0	0	0	0	0	0	0	0	0	0	0
380	198.7884	158.7677	147.9272	127.3448	109.2673	102.1824	95.0278	89.1426	87.7485	88.8249	89.3134	88.5632	87.7867	86.3485	81.6814	76.2989	69.4651	60.4787	54.8158	47.3055	38.5016	30.3958	20.5195	12.4909	6.6113	0	0	0	0	0	0	0	0	0	0	0	0	0	0	0	0	0	0	0	0	0	0	0	0	0	0	0	0
382	196.1017	171.1992	149.0812	134.4844	118.8462	109.2796	100.409	96.6517	91.602	92.3877	95.049	94.3541	95.082	91.4507	90.2643	83.1969	75.5678	66.3634	59.0628	51.2806	43.1818	34.7011	25.6996	16.1285	8.6229	2.645	0	0	0	0	0	0	0	0	0	0	0	0	0	0	0	0	0	0	0	0	0	0	0	0	0	0	0
384	202.6222	183.0892	160.258	148.9368	129.0796	114.516	108.7501	101.1603	98.7401	98.2906	97.9945	100.051	102.6484	99.4104	94.5794	89.3595	81.2686	72.0147	63.2386	55.1896	47.7866	38.9374	29.4531	20.03	12.4526	6.2008	0	0	0	0	0	0	0	0	0	0	0	0	0	0	0	0	0	0	0	0	0	0	0	0	0	0	0
386	218.2674	200.8038	166.7776	156.562	135.1683	122.2872	115.5578	102.5367	104.9342	104.3461	104.6295	105.4375	107.8583	103.3212	100.9724	95.0144	87.2112	80.4183	67.595	59.9437	52.3347	43.2655	33.2694	24.4897	14.8909	8.2615	2.4227	0	0	0	0	0	0	0	0	0	0	0	0	0	0	0	0	0	0	0	0	0	0	0	0	0	0
388	221.3187	197.5348	181.7147	160.2359	139.807	129.0613	118.5553	115.1259	107.5517	110.7469	109.7962	111.1087	112.4914	110.6642	106.6644	102.2608	94.7491	83.8434	72.1838	64.9004	56.8813	47.2991	37.1925	27.6702	17.6769	11.076	4.0472	0	0	0	0	0	0	0	0	0	0	0	0	0	0	0	0	0	0	0	0	0	0	0	0	0	0
390	222.7055	207.1659	197.0433	172.2006	155.579	136.8948	128.1763	120.8638	117.7171	114.5331	119.5939	120.5702	121.8475	121.1328	114.9564	107.6835	100.0458	92.455	79.3526	69.8549	61.4257	51.3304	41.1134	31.5767	22.7574	13.9035	7.7676	1.1673	0	0	0	0	0	0	0	0	0	0	0	0	0	0	0	0	0	0	0	0	0	0	0	0	0
392	258.1249	228.8352	208.0738	175.5812	162.7975	145.9924	130.9674	122.9303	123.2718	116.6309	121.5414	124.9557	128.2571	126.3569	123.1667	118.6691	106.1844	100.9558	89.0863	74.3596	65.1314	55.0285	45.7889	35.998	27.7232	17.2781	9.0465	3.5511	0	0	0	0	0	0	0	0	0	0	0	0	0	0	0	0	0	0	0	0	0	0	0	0	0
394	266.7282	219.4102	213.0543	184.4107	169.1453	153.1373	140.0087	130.4472	125.5331	126.5477	127.1046	131.5025	133.583	135.5873	129.5854	124.9706	115.0435	105.0245	95.6891	78.8022	69.8538	60.7748	51.2408	40.3613	29.9365	20.2792	12.223	5.9396	0	0	0	0	0	0	0	0	0	0	0	0	0	0	0	0	0	0	0	0	0	0	0	0	0
396	272.0766	234.5676	219.3093	200.5021	174.6009	160.4797	143.3359	135.1434	133.9427	131.3539	131.2917	140.1026	139.748	139.5258	132.5717	129.3262	122.7705	112.6232	100.3424	89.083	75.6915	66.5485	56.3472	44.736	33.3692	25.854	16.5422	9.3558	2.4631	0	0	0	0	0	0	0	0	0	0	0	0	0	0	0	0	0	0	0	0	0	0	0	0
398	285.8486	256.4271	228.0787	206.3076	187.2462	168.0803	156.0938	144.4822	137.5791	136.0227	138.1873	140.1693	146.385	146.4946	143.5163	139.0691	128.4214	119.2482	108.5451	96.4428	81.5983	72.0067	61.4985	49.1432	38.2861	29.4994	19.6729	10.9581	5.6021	0	0	0	0	0	0	0	0	0	0	0	0	0	0	0	0	0	0	0	0	0	0	0	0
400	291.7893	271.4851	252.5645	222.2236	190.9174	173.3624	165.0139	150.2509	145.3639	143.0078	145.4467	153.8698	152.5513	155.0498	152.8346	148.0302	136.1329	128.5226	116.7552	104.0251	87.4661	77.2435	65.9454	53.7577	43.1706	32.8257	24.0245	13.4973	8.6247	1.7942	0	0	0	0	0	0	0	0	0	0	0	0	0	0	0	0	0	0	0	0	0	0	0
402	328.1278	271.4391	256.5621	222.8638	205.0944	177.4844	168.0349	156.7979	148.1544	150.4719	149.7859	155.7829	161.7569	160.7769	161.2207	151.6232	143.3537	137.3095	124.064	111.9112	94.1471	82.3034	70.2412	58.713	47.9403	37.5602	28.049	17.3781	10.7399	4.451	0	0	0	0	0	0	0	0	0	0	0	0	0	0	0	0	0	0	0	0	0	0	0
404	320.1487	306.6229	260.6464	235.8177	214.4617	192.5983	178.8469	160.1166	154.1778	152.735	156.5924	164.6863	168.5814	167.9416	166.2497	161.3587	150.9569	144.3636	130.5318	118.5254	103.4656	87.3092	74.9716	63.6163	52.6602	41.6112	30.6962	21.8501	12.6561	8.1781	0	0	0	0	0	0	0	0	0	0	0	0	0	0	0	0	0	0	0	0	0	0	0
406	328.2663	294.9318	276.1406	245.4968	224.5107	200.8262	178.4728	170.5208	165.1278	158.8836	161.2876	166.2194	173.5682	170.2041	175.5141	171.0925	159.0514	150.4243	137.2717	126.8688	108.9867	92.4336	80.0401	68.4218	57.2043	45.7047	35.5767	24.7987	15.0292	9.7934	2.3933	0	0	0	0	0	0	0	0	0	0	0	0	0	0	0	0	0	0	0	0	0	0
408	345.9266	324.7178	281.9638	258.185	227.3958	207.7113	184.9212	174.893	171.7023	167.2298	167.3905	173.9778	180.9458	180.8998	181.6481	176.0308	171.4136	159.5453	148.3691	132.5521	119.2708	99.5769	85.235	73.333	61.3675	49.8646	38.6671	28.4053	17.9709	11.7795	6.3171	0	0	0	0	0	0	0	0	0	0	0	0	0	0	0	0	0	0	0	0	0	0
410	366.771	329.9324	297.8994	261.4516	246.9522	213.4024	194.3798	183.8543	177.3246	170.5368	176.4313	182.762	184.4313	189.2821	188.3305	186.6804	177.0543	167.0604	155.0388	138.9019	124.1115	108.0628	90.4164	77.7587	65.5196	54.6196	42.7844	32.2391	23.0593	13.3519	8.1696	1.7304	0	0	0	0	0	0	0	0	0	0	0	0	0	0	0	0	0	0	0	0	0
412	362.655	338.0178	302.8449	280.1266	253.611	228.3681	208.4796	188.5754	180.6922	177.7428	178.6197	187.6039	192.2467	194.539	196.9716	190.6632	183.9092	172.7322	162.7616	148.9448	133.0045	115.3456	95.5918	82.5598	70.8828	59.9722	46.894	36.2926	26.0743	16.4603	10.9783	4.9863	0	0	0	0	0	0	0	0	0	0	0	0	0	0	0	0	0	0	0	0	0
414	359.922	338.8374	308.439	279.1377	262.1782	231.36	212.0844	196.4352	187.6054	178.4549	183.3928	187.862	195.4102	200.6439	198.0135	195.9832	193.0627	181.6394	168.5564	157.9382	140.3269	122.4267	103.845	87.9656	76.233	64.0511	50.9929	39.9725	29.122	20.1254	12.8642	7.6392	0	0	0	0	0	0	0	0	0	0	0	0	0	0	0	0	0	0	0	0	0
416	376.1298	356.356	323.1199	303.1415	267.8236	246.4224	217.2079	198.513	192.4114	185.4333	189.1483	194.3272	200.0938	207.6687	206.0595	208.7777	202.3276	189.8764	176.1741	163.1473	146.624	130.7353	110.61	93.5712	81.7565	68.2746	55.2068	42.2138	32.4424	23.1244	15.1276	9.3398	3.344	0	0	0	0	0	0	0	0	0	0	0	0	0	0	0	0	0	0	0	0
418	400.2714	377.5444	324.4928	310.9997	273.8145	251.4551	226.2455	207.1763	198.3591	189.0406	192.2348	201.1761	204.1916	210.2792	215.0726	212.5535	209.0967	199.0299	183.2237	171.3993	155.2683	137.3682	119.1776	99.4146	86.2168	72.6713	60.0689	46.5641	36.1591	26.4184	17.5234	11.312	6.3052	0	0	0	0	0	0	0	0	0	0	0	0	0	0	0	0	0	0	0	0
420	419.2726	369.4035	340.6251	312.7303	289.9949	252.0652	236.2418	215.2352	203.3074	194.0096	200.0329	204.0623	212.2861	219.1579	218.6356	218.4235	213.4787	203.1388	192.5326	179.8696	161.4576	144.2452	124.578	105.2959	91.2143	78.1088	64.83	50.9421	39.5166	28.1551	20.3786	13.3434	9.1318	1.8304	0	0	0	0	0	0	0	0	0	0	0	0	0	0	0	0	0	0	0
422	431.6632	382.1051	343.3296	325.6962	285.6449	266.2906	240.7491	220.8999	205.2977	202.1506	200.7599	208.5497	212.2069	222.3331	226.3373	227.4057	221.7355	213.1831	199.8636	185.7662	169.4238	151.8158	133.0996	114.343	96.7782	83.6021	68.3557	55.3612	43.1455	31.9156	23.4357	16.0959	10.8375	4.9391	0	0	0	0	0	0	0	0	0	0	0	0	0	0	0	0	0	0	0
424	416.3785	409.3885	355.9053	330.8168	302.7301	268.2964	248.2276	228.1819	212.2156	208.42	208.7403	214.3205	221.4448	225.6861	230.8803	234.3945	223.889	217.7505	208.5361	194.1809	176.7879	158.6397	140.0737	122.5143	102.38	87.8452	71.9043	59.8102	47.1115	35.8505	25.9031	18.0952	12.2517	6.5895	0.2629	0	0	0	0	0	0	0	0	0	0	0	0	0	0	0	0	0	0
426	436.0048	403.9908	370.1287	330.0258	311.4842	282.0907	258.0807	232.2293	218.0368	210.4469	212.0533	218.2524	224.7244	232.7027	235.9902	235.8779	235.6487	224.1715	216.3143	197.9074	181.5874	162.9015	144.2741	125.2973	108.1953	91.6179	76.5357	64.0308	51.1869	40.3426	29.5111	20.6139	14.5835	9.4033	3.0758	0	0	0	0	0	0	0	0	0	0	0	0	0	0	0	0	0	0
428	446.2243	406.8571	374.2766	358.4258	316.263	282.8612	259.5627	240.8218	217.7861	217.5589	216.0025	218.1274	230.5037	235.018	241.4331	242.3845	239.4694	231.2196	220.5918	208.4004	189.7532	173.4943	149.5846	132.5389	115.0824	95.5781	81.3415	67.6714	55.3903	43.9744	31.9754	23.517	16.7441	11.5418	5.4067	0	0	0	0	0	0	0	0	0	0	0	0	0	0	0	0	0	0
430	469.891	430.6059	394.4165	356.5319	327.4117	293.4565	263.2899	244.3723	228.7439	220.8308	219.671	226.1375	233.462	239.4619	244.1381	250.086	246.3331	241.8025	229.4532	215.2801	196.3894	178.4361	157.7976	137.9486	120.4125	99.5834	85.4719	71.3549	59.6455	47.4591	35.7954	26.9825	19.3806	13.785	7.9642	2.1316	0	0	0	0	0	0	0	0	0	0	0	0	0	0	0	0	0
432	468.1228	434.3084	403.4796	353.5907	335.8111	298.4234	276.2125	248.8677	232.6339	226.6513	221.1235	230.1803	232.3313	243.2437	247.8719	254.2223	249.0142	247.271	235.7388	221.8031	205.7657	184.7797	163.2538	144.9683	126.9512	103.5197	89.1834	75.6501	63.6412	50.9301	38.4965	29.0467	22.0526	15.1133	10.1857	4.3549	0	0	0	0	0	0	0	0	0	0	0	0	0	0	0	0	0
434	472.4399	421.8885	418.491	367.2134	337.5595	304.2169	281.894	251.5217	230.7323	222.0847	228.0166	233.0298	239.3682	247.461	255.339	255.5438	253.9709	251.3691	241.4954	227.5812	209.3768	191.4131	168.041	147.3082	132.5822	112.877	92.9307	79.9884	67.1924	54.4361	41.6697	31.6334	24.3445	17.3693	12.2025	7.4946	0.751	0	0	0	0	0	0	0	0	0	0	0	0	0	0	0	0
436	489.1066	462.8591	415.3087	376.7437	356.6644	309.2647	276.3915	252.7139	240.2355	225.3718	228.3709	232.83	237.0043	248.6373	255.0305	260.4321	255.522	256.9474	245.4878	236.3757	213.4003	197.4217	175.9937	154.698	135.9139	118.1637	96.8382	83.9905	70.8694	58.0517	44.9851	34.5913	27.1009	19.4534	13.7763	9.1135	3.6269	0	0	0	0	0	0	0	0	0	0	0	0	0	0	0	0
438	479.8274	447.8181	406.8747	377.2399	347.25	318.9949	283.9092	261.5903	244.2705	235.9775	232.6997	239.9336	244.7537	251.0944	261.0541	265.3403	265.5847	257.7644	251.8777	239.057	222.2103	202.2237	179.0086	158.8591	140.2166	122.9969	100.9188	87.7802	74.4338	61.4103	48.2345	37.8203	30.1387	22.5372	15.5401	10.9879	5.8582	0	0	0	0	0	0	0	0	0	0	0	0	0	0	0	0
440	493.4334	454.0138	417.2136	383.5922	354.6364	322.4543	295.7544	270.2832	248.6503	236.1604	233.4241	238.7206	244.8914	254.4932	260.6434	271.3443	265.229	268.0966	257.0695	242.8822	223.8558	207.3513	186.4229	165.8735	146.8129	129.8437	108.5012	91.2405	77.7929	64.4376	51.5297	40.1395	32.1343	24.9095	17.5643	13.0609	8.2391	2.4703	0	0	0	0	0	0	0	0	0	0	0	0	0	0	0
442	470.0447	454.3878	414.9595	392.616	349.6803	324.1124	297.8088	267.1725	249.8219	244.3905	236.3807	243.8467	249.9132	253.5401	263.789	269.2064	271.5702	268.8262	257.4001	249.5133	232.46	212.0797	189.962	170.5133	151.3593	132.9378	114.2638	94.6716	81.1332	66.9498	54.8282	43.1121	34.4064	26.7241	19.9052	14.699	9.8984	5.4728	0	0.0896	0.1037	0	0	0	0	0	0	0	0	0	0	0	0
444	501.3202	450.4742	437.3002	391.2172	368.1923	330.7786	299.2826	273.6758	254.0453	244.1	241.5027	243.5225	248.9197	257.7929	269.2632	271.08	275.5259	272.6918	265.877	253.1828	233.9357	219.1851	194.7334	173.4051	157.3006	138.6957	119.1589	98.1423	84.0093	69.4909	58.1679	46.1333	37.3272	29.7053	23.1081	16.3331	12.8477	7.3852	2.225	0.2705	0.2087	0	0	0	0	0	0	0	0	0	0	0	0
446	503.5957	461.8836	424.0142	402.0236	372.5331	334.3217	308.9765	277.5237	258.0604	242.5019	241.3365	243.9839	254.4505	261.4503	265.3832	273.0388	277.5972	273.4114	269.7319	258.3547	241.639	223.1062	200.0955	178.2792	157.8093	141.894	123.9867	101.7184	86.7203	72.9791	61.0926	49.224	41.0813	31.9891	24.6292	17.9928	14.0751	9.843	4.568	0.4542	0.3154	0	0	0	0	0	0	0	0	0	0	0	0
448	489.0065	478.2209	424.9833	402.5663	378.079	338.1765	317.0191	288.273	260.2621	248.1922	239.8771	247.073	251.0615	260.2688	266.7316	275.3114	277.0045	275.2739	271.7021	261.6606	242.8751	222.4221	202.7255	181.5202	163.7767	146.0721	127.9208	105.7696	89.5203	76.5615	63.0954	52.3897	43.5334	34.0454	28.0012	20.8597	15.3363	12.5916	6.512	0.641	0.2119	0	0	0	0	0	0	0	0	0	0	0	0
450	516.5896	477.2763	435.3368	406.0866	383.7291	347.1623	308.0296	284.5705	266.0576	252.6771	241.5386	247.2269	252.1597	261.9217	265.9625	276.4803	280.4509	275.8069	275.9632	262.8713	246.7637	229.5154	205.2928	186.9302	168.1016	150.0278	131.7965	110.1167	92.3546	79.1895	65.1226	55.6005	46.0615	37.1576	30.2051	23.3121	17.2614	13.186	9.6289	4.0488	0.1068	0	0	0	0	0	0	0	0	0	0	0	0
452	513.8607	479.2492	438.8436	412.0339	379.1602	345.4218	316.1052	289.2614	268.1917	252.222	243.7718	251.7492	250.6732	259.6272	269.5869	274.982	283.9445	280.4348	276.0288	268.1496	253.0739	231.972	209.3026	187.1063	171.7411	154.4389	133.5385	116.1365	95.2671	81.3814	68.4884	58.6688	48.6469	40.7744	33.6545	26.2676	19.6309	15.2975	10.8411	5.8623	0	0.3004	0.3525	0	0	0	0	0	0	0	0	0	0
454	490.5684	468.2816	434.3972	413.0161	380.4509	345.5294	319.1883	290.5274	272.8249	254.8833	249.8384	248.579	258.0059	259.715	268.841	279.5023	280.8589	284.3024	275.2751	267.9591	255.4964	234.0416	212.8323	192.4515	173.7704	155.6032	136.3038	118.2957	97.4959	83.5991	71.9021	61.3476	51.2695	42.8516	35.3537	28.2325	21.6855	16.2579	13.4311	8.3145	4.4084	0.9088	0.7109	0	0	0	0	0	0	0	0	0	0
456	515.5302	493.7041	450.2009	412.0688	387.7248	349.601	323.5616	288.4925	272.6334	255.4907	249.732	249.9971	255.9608	261.768	269.5185	279.6398	280.8566	282.2289	279.2259	267.2509	253.6914	236.171	216.3631	192.6109	176.8094	158.4273	139.8877	121.6813	103.6586	85.9753	75.0415	64.1617	54.0122	43.203	36.7534	30.3424	24.5	18.8467	15.3202	10.2462	5.4684	1.5293	1.0767	0.0611	0	0	0	0	0	0	0	0	0
458	493.1705	469.7076	431.5036	412.3904	391.556	350.1275	324.44	299.8647	275.0659	258.2683	253.6056	248.4961	254.507	262.8161	270.4542	277.8747	280.7029	284.1534	279.1175	271.6442	256.3329	238.7135	216.1894	196.1108	180.9653	162.8668	144.0047	124.3737	105.1864	88.5173	77.7215	66.3124	55.6573	45.4607	40.5059	32.8307	26.6971	21.1684	16.3855	12.2498	7.3701	2.165	0.8684	0.1236	0	0	0	0	0	0	0	0	0
460	476.3456	464.3951	451.7193	429.6467	384.8677	360.2255	330.2916	297.424	277.4252	257.0431	253.8903	254.1836	252.426	260.5297	267.5953	278.1411	278.2377	280.1315	277.1898	271.9399	259.3908	238.017	218.1781	197.0526	181.011	165.5467	146.2001	126.2841	109.9988	91.0956	79.2142	67.6772	56.9191	47.7581	42.0568	34.9113	28.1096	22.7063	16.8694	13.5613	9.7913	4.7525	0.6554	0.1874	0	0	0	0	0	0	0	0	0
462	510.0793	475.3589	444.4271	415.7677	391.9756	361.6912	332.1269	301.4149	280.2631	263.7815	256.8125	251.4609	255.4076	259.0743	270.3896	273.7981	280.3358	285.5877	280.7401	271.6399	258.0635	241.5609	221.1923	199.9726	184.8716	167.1587	148.2435	129.8795	111.0076	94.0615	80.8096	69.1321	58.2741	50.1502	43.2587	36.683	30.331	24.8803	19.8824	15.5714	11.2662	7.2324	0.4379	0.6541	0.547	0	0	0	0	0	0	0	0
464	515.4564	481.4412	428.5445	417.0976	394.142	361.1214	328.7724	296.5704	283.2047	263.5343	254.3737	250.5715	257.12	261.3686	262.6349	278.3519	278.528	286.958	281.1061	269.4859	259.4125	240.5546	220.5958	202.4278	186.7733	168.8205	149.9532	132.3539	115.3163	98.7477	82.4206	70.6176	59.6452	52.5861	44.9991	40.0529	32.7308	26.5373	21.2851	17.3252	13.902	8.9888	3.9094	1.5379	1.1071	0	0	0	0	0	0	0	0
466	505.3635	454.436	432.1572	404.2687	384.708	371.7638	332.7823	301.1244	283.6845	261.5582	256.5545	251.946	253.621	257.3626	264.1097	276.0418	283.1053	281.1452	279.2156	268.9896	259.0283	242.6915	221.6006	201.208	187.5868	170.5743	153.8353	135.0707	116.6634	100.6771	84.0729	72.1486	62.2207	54.4947	46.7831	41.4597	35.0602	29.8724	23.7432	18.6498	14.5668	10.5782	6.3351	2.443	1.6806	0.3682	0	0	0	0	0	0	0
468	495.0483	463.0186	438.061	419.0938	399.7916	359.0219	336.4	303.6968	283.261	263.7191	257.3738	251.1677	254.8685	261.9446	262.1894	272.1455	276.7705	278.8524	278.8269	268.8695	256.4555	240.185	223.4417	204.8883	186.8697	172.0036	154.6705	138.0477	118.5662	102.6369	87.3989	73.7183	64.8609	55.2605	48.6117	42.9815	36.4716	30.7946	26.2716	20.4865	17.0405	12.6554	9.2619	3.3703	1.9974	0.7454	0	0	0	0	0	0	0
470	484.3471	445.2486	433.6152	414.5713	393.7231	361.4383	325.3714	304.191	282.4041	268.1842	254.9822	254.6698	252.4453	257.4305	263.6834	269.8664	273.9753	275.8199	275.3437	271.2367	258.7938	242.3691	220.1072	202.4448	189.05	174.2652	155.3033	137.8214	119.5931	104.8429	89.5692	75.305	66.3459	56.0288	50.471	44.3589	38.5194	32.7767	26.5981	21.9834	18.5175	14.5109	11.1617	6.6222	2.3214	1.1315	0	0	0	0	0	0	0
472	474.4203	477.5372	435.5331	416.9605	398.9623	361.8926	336.017	306.2083	286.351	260.8869	254.8471	250.6197	248.7852	255.4913	262.2542	265.9208	271.5196	273.0165	272.7872	265.6322	254.7419	239.5584	221.2768	204.3609	189.5312	173.8202	157.665	139.2103	120.905	106.6094	91.7218	77.0914	67.3999	58.1137	52.3436	45.8655	40.4682	34.7152	29.6234	24.1104	18.8817	17.2593	12.6414	9.1295	2.6587	2.0378	1.0546	0	0	0	0	0	0
474	464.027	454.5094	440.0617	417.7499	395.3788	360.2769	339.3348	300.5093	283.852	262.3728	250.9899	245.3702	248.853	250.9251	258.9869	264.4877	268.5304	270.3258	264.599	262.9101	254.8816	238.7779	223.3275	202.871	187.7752	174.7581	157.4037	138.5353	124.4391	107.4472	93.6883	79.0972	68.4569	60.2353	53.9614	47.3969	41.6955	36.215	30.578	26.0785	20.1158	18.1319	14.529	10.8849	6.0866	3.484	2.1391	0	0	0	0	0	0
476	452.7437	445.9166	429.9798	412.5363	385.0767	358.4482	332.1745	304.1786	282.2883	266.2785	252.556	250.2187	247.1835	246.796	259.158	258.9734	262.5432	266.7475	266.8334	261.437	249.3387	238.2926	217.9391	203.0485	187.293	175.1725	157.5998	139.0087	123.4791	110.0472	95.5912	79.6055	69.4534	62.0473	55.5531	48.9085	42.0534	38.6359	32.5774	27.9593	22.3495	20.1997	15.9618	11.9454	8.7374	4.9654	3.2504	0.7002	0	0	0	0	0
478	440.6223	436.5543	423.3805	403.1398	389.9213	359.3981	332.4812	304.0171	283.1811	264.234	255.0326	245.4113	241.2002	248.8071	249.5842	256.3358	258.7946	259.7712	264.4975	254.9885	246.7452	237.0241	215.398	202.6765	188.6654	174.433	157.1151	143.3858	125.4968	108.6969	97.9174	83.2233	70.3891	63.4888	56.7272	49.8101	43.4938	40.4666	34.539	29.6973	24.4766	20.2636	17.4452	14.197	10.6908	6.478	3.8379	1.4172	0	0	0	0	0
480	428.1072	426.8564	413.5585	405.2919	381.3633	352.6861	339.0194	301.1754	282.1273	260.5867	253.3079	244.5179	244.1339	245.1564	247.882	256.0184	253.0946	262.7832	260.2618	254.2845	245.6298	234.7529	219.5927	202.4079	188.5501	173.7639	159.7581	141.8731	125.3724	111.8519	97.9356	85.1788	74.0101	64.3604	57.5195	50.672	44.9566	40.3071	36.6021	30.8687	25.7926	21.7584	19.3897	16.9693	12.7452	8.1114	4.4384	2.1509	0	0	0	0	0
482	414.32	415.9399	425.6958	404.6328	392.317	350.6391	324.4691	304.9664	283.7413	265.8066	249.2364	241.0893	239.0214	245.6984	241.6872	250.8691	254.6649	257.7999	255.2253	249.7057	244.0365	231.3613	215.4138	201.6907	186.806	175.7786	160.7157	144.0483	126.489	111.8935	98.6112	85.1611	75.7901	65.1	58.1941	51.7385	46.3455	41.3077	37.2173	31.936	27.5784	23.2572	19.6542	16.8478	13.9989	10.0546	5.0413	2.925	0.8761	0	0	0	0
484	400.2207	404.7556	410.0704	402.1074	376.2198	360.489	327.4439	300.1011	283.4518	264.1096	246.6363	243.0929	241.6907	236.8893	243.7751	245.4935	248.2975	253.8926	251.9486	248.5133	240.2673	227.7555	212.5599	199.1952	184.7499	174.3476	160.281	141.5881	127.6113	111.8121	100.4848	87.0365	77.2479	65.842	59.1767	52.8161	47.7529	42.1402	39.7843	33.9876	29.5963	24.0288	21.339	17.9239	15.1856	12.0874	7.6335	3.7432	1.7688	0	0	0	0
486	385.7339	393.226	400.2336	394.7709	387.1899	355.2151	325.4495	302.5648	290.2166	257.2789	248.8074	242.1592	236.456	238.0202	237.9531	244.8207	247.0965	251.5582	249.2321	247.5371	238.3774	225.733	210.0638	196.5844	184.9229	174.3461	159.4379	143.2892	127.9926	114.8089	100.879	89.8818	78.4083	66.5733	60.3098	54.2754	48.8092	42.9726	39.959	34.9686	30.0385	26.2387	22.291	19.3028	17.0792	13.7117	8.5536	4.5755	2.6777	0.3622	0	0	0
488	370.8726	381.3619	390.0848	401.9492	372.0596	346.9507	323.0912	296.8433	275.019	261.6552	248.3304	237.6648	238.9043	237.2903	239.5226	241.0172	247.3612	246.6373	246.5551	240.6397	233.1092	225.5434	207.2685	195.779	184.9591	171.1339	157.6196	144.1094	128.2659	113.8255	101.5852	88.9562	79.5925	69.9847	61.4417	55.7418	49.1411	43.8047	40.4584	37.5812	31.445	27.579	23.2326	20.54	17.8645	15.0186	10.4377	5.4213	2.6511	0.7308	0	0	0
490	355.7196	369.2462	379.708	379.0671	371.0581	344.6424	322.6974	296.357	274.8321	258.9361	244.6471	239.5321	231.0484	228.9356	232.2907	238.1006	240.7409	244.1666	242.5434	237.8958	228.4558	219.8448	209.0764	194.7029	182.5467	171.1701	159.2348	141.98	127.7427	114.0925	102.5053	89.9087	79.8532	71.4773	62.5843	56.4957	49.4711	44.6449	39.6408	37.9076	32.5094	28.627	24.3792	21.7671	19.5279	16.4532	12.3487	8.0927	2.6237	1.1059	0	0	0
492	340.6068	357.4434	369.4629	378.5764	353.4353	329.7293	316.8548	293.7671	276.0479	255.6995	244.8761	235.3581	230.832	222.714	232.8497	236.6124	235.3665	239.4904	237.0389	234.6393	224.7857	219.2444	205.635	194.5576	182.7355	168.8321	157.3607	143.4194	127.6926	113.075	104.1924	90.0196	81.6799	72.7303	63.7983	56.9401	50.4074	45.5361	40.6409	38.4226	34.3122	30.1529	25.3226	22.4147	20.7889	17.05	13.6242	8.8969	2.5978	1.6906	0.6694	0	0
494	325.1694	345.5842	358.9643	363.348	361.7844	336.635	312.5492	296.6035	279.0418	253.8178	245.3896	234.9671	226.2721	230.1943	230.415	228.3266	234.073	234.1354	231.3534	230.3131	223.3612	215.9745	200.6214	189.1571	179.9353	171.6191	155.2753	142.5098	128.0893	114.3068	101.9282	91.8192	80.9253	73.8565	64.7321	57.3824	51.3526	46.0134	41.6528	39.2726	35.6673	30.6419	27.5917	22.9055	20.7039	18.4199	15.3186	10.8157	6.1118	2.4902	1.3517	0	0
496	309.3143	333.3506	351.8072	354.246	353.9118	336.0384	309.6075	281.2404	270.0304	253.7094	237.3133	230.8151	224.8828	219.6263	222.3782	227.9137	226.7239	231.4431	228.3884	227.6117	219.5183	212.2625	194.2111	186.5654	176.519	168.4221	155.9976	140.3018	124.952	114.8474	101.2462	91.0043	83.6005	73.9818	64.6501	57.8053	52.0782	46.2639	42.6638	39.5468	36.55	31.4536	28.5366	24.6583	22.0109	19.5352	16.084	12.2811	7.0876	3.3038	2.0463	0.3513	0
498	293.0612	335.9536	337.8502	344.8225	352.156	326.251	308.2074	280.1824	269.7576	250.5795	237.8017	228.7998	220.0951	216.6862	215.808	219.7948	227.8836	222.7347	223.8638	225.4552	215.9201	204.878	195.2321	184.161	176.3088	166.9162	155.9811	140.3895	127.5121	113.0353	101.832	90.544	82.247	74.9243	67.5442	58.2087	52.364	46.4974	43.6733	39.6484	37.2364	32.1708	30.2442	25.5316	20.9603	20.3499	17.4264	13.5909	8.3576	4.1306	2.2027	0.7088	0
500	307.2	320.1703	323.6221	335.1915	344.5177	325.1345	312.4316	281.9944	261.5711	247.5111	232.8579	225.5849	219.0598	215.7759	214.1125	220.4477	221.4885	223.8173	219.8714	217.8615	212.3792	201.1639	191.156	181.2135	173.9989	163.2382	152.0699	140.5367	125.5722	113.665	102.078	89.2408	82.946	73.8235	67.6351	59.35	52.6467	47.5421	44.3385	39.7456	37.0342	34.8642	30.9627	25.924	23.1188	20.4755	16.9304	13.8565	10.3618	7.3414	2.3615	1.0725	0
502	290.9157	304.0054	310.7732	325.2547	336.8401	317.423	306.1398	275.1931	260.4647	240.623	228.5032	219.9157	216.8406	208.3617	212.4604	212.7803	215.7771	214.898	214.3633	213.6262	204.0265	198.1633	189.9914	177.0846	171.452	159.7586	150.1466	137.0716	124.1828	114.316	100.571	91.0292	81.4537	74.8281	68.8314	60.0375	52.9106	48.5834	44.2782	39.8267	36.9794	34.8714	31.0364	27.4575	23.0561	20.4823	18.5875	14.8074	11.5599	7.7282	2.5219	1.6964	1.0549
504	298.1467	287.5645	299.4432	315.1198	318.0555	315.3271	300.3574	271.2184	257.2843	237.0193	222.529	214.4223	205.2606	204.3793	205.8796	210.6671	210.6567	208.4013	209.5216	207.2857	203.2787	196.8684	181.8852	174.8727	168.8961	159.5209	149.4479	135.2877	123.258	111.1558	100.997	90.0015	82.0866	75.8389	67.603	60.8772	53.1716	48.9133	44.2108	39.9036	35.5843	35.0396	31.8619	27.9562	24.3465	19.7593	19.5105	15.3534	12.1556	9.5115	4.9806	2.5871	2.1275
506	299.5391	271.1729	288.2457	303.6296	308.8092	307.2399	291.5112	266.2286	255.6376	237.7532	223.3755	212.9639	207.1767	201.5685	203.8626	200.9512	202.0108	205.6447	205.1754	205.0411	197.6401	192.8334	180.001	170.4518	163.9843	155.2408	146.3389	133.2218	120.8246	109.8918	100.5416	90.9541	82.0312	73.5795	68.9701	61.0418	53.4925	48.9356	44.3695	40.0233	36.0153	36.5165	32.4738	28.581	26.2142	21.2336	19.2089	16.0328	13.9007	10.0982	6.9674	3.4964	3.2214
508	246.6959	254.7633	285.3395	292.8383	299.7004	297.8765	280.2272	265.5045	252.8353	223.214	214.8327	211.0909	205.4174	199.828	200.5266	200.3595	203.3321	200.4857	198.6934	198.5209	191.8517	186.5081	175.9551	170.4904	161.775	152.6484	144.902	131.7397	119.9687	108.2984	99.5338	87.8761	81.0733	74.7681	69.462	61.9467	54.9941	49.0067	44.5751	40.2275	36.4904	35.6627	33.2601	30.6167	27.1569	22.6683	19.0749	17.3402	13.721	11.2131	7.7484	4.4275	4.3406
510	243.4528	261.7238	273.0022	281.7726	290.3461	292.1698	285.2871	257.6503	245.5829	231.8339	219.424	209.4448	201.7889	199.8092	189.8064	194.1161	195.2287	194.7951	195.6028	191.2574	188.1579	178.2107	174.2593	163.4352	158.8117	151.1844	144.7593	130.0189	119.6731	107.622	96.7397	87.5856	80.2387	72.7351	67.4842	63.1605	55.9586	49.0687	44.7971	40.4489	36.9675	34.0378	33.7987	30.8107	27.8794	22.7309	18.6869	17.291	14.6424	12.1334	9.2603	5.4693	5.4824
512	240.0603	251.6171	260.3385	270.7193	280.7111	287.2306	273.029	257.3869	235.3181	219.8626	212.1279	198.267	199.7129	190.1708	188.6266	189.6796	189.8939	189.1065	187.1785	187.8856	182.2079	178.5444	170.7224	161.6947	153.8047	148.4652	138.1951	127.0326	115.0344	104.7955	95.68	87.0237	80.3272	73.3538	67.2305	61.6034	54.9804	49.115	45.0524	40.6612	37.442	34.2137	33.3308	31.0142	28.0548	24.4346	18.4379	16.1748	14.9573	13.4126	9.1835	6.6613	6.6461
514	236.5511	254.6953	247.3869	259.7262	270.8358	267.8067	270.745	247.1913	232.9466	213.3341	205.9918	195.272	185.0562	185.7197	181.4066	182.6254	183.2324	181.0122	182.2265	181.3682	178.0916	172.6374	162.9288	157.7751	152.1514	143.5844	137.7588	126.0363	113.5581	104.0786	95.2041	84.4842	79.576	72.4464	66.7404	62.4369	53.7785	51.5193	45.3037	41.1711	37.6451	34.3862	33.0163	31.3293	28.4644	25.0589	20.0194	15.9597	14.8874	13.1445	10.6832	7.9138	7.8958
516	233.1061	248.055	234.3309	248.6703	258.9658	259.0965	258.7442	238.0907	234.1041	213.8619	205.9959	193.5882	187.1784	184.3353	180.3301	178.9024	179.9611	181.7625	178.9493	178.0493	171.8832	169.8162	161.4821	154.5283	147.992	143.2179	134.6618	122.9235	112.8448	101.1975	93.5937	84.7485	78.5147	71.9933	66.0006	60.6248	54.7782	49.8722	45.5858	41.7149	37.3214	34.5818	34.0183	31.4689	28.8842	25.7988	21.6434	16.2456	15.1623	13.3688	11.0199	8.4244	8.4052
518	229.7116	215.8044	221.1351	245.85	248.1239	250.3434	256.4594	237.6083	222.1221	208.5278	201.5837	190.1115	180.1485	178.2213	174.5568	175.4622	174.4507	177.9299	174.7728	171.6884	168.3683	163.8512	156.6959	150.9299	147.0907	139.3873	131.2987	119.8516	110.3839	101.6198	93.8713	82.4642	76.448	70.4628	64.6475	59.9784	55.2115	50.3454	45.8984	41.7293	37.0102	34.8	32.8516	31.1337	29.5407	26.4691	22.0231	15.6182	13.7025	14.5162	12.3695	8.8224	8.8024
520	226.1821	158.5988	228.8889	233.5607	236.988	241.3373	245.7163	229.44	216.663	205.3688	194.8201	183.0066	179.8136	175.1242	171.2197	170.6992	170.1645	167.3188	169.2029	166.4393	163.1424	159.0625	153.8542	144.7741	142.4807	135.6798	128.4551	117.7966	107.6833	99.6925	91.14	81.5883	76.68	69.0909	64.9505	59.9641	54.3739	50.52	46.2064	41.4484	37.2491	35.0143	32.7902	31.397	28.5062	26.0886	23.6955	15.7077	12.9421	14.3819	12.1048	9.864	9.8416
522	222.5035	160.9431	226.7344	220.9429	226.1137	232.0637	241.1595	232.1075	209.2206	198.5927	193.1022	182.3747	175.2871	166.8173	166.4066	163.5101	164.2144	165.3421	163.1066	163.381	158.664	154.5744	149.8548	141.4403	137.9853	131.8693	126.6317	116.5728	107.1744	97.7168	88.2598	79.9934	72.8326	68.6006	64.2972	57.85	55.0579	49.949	44.7899	41.1483	37.4816	34.8321	32.7171	31.3303	29.6197	25.8655	23.2753	17.2716	11.1716	13.6592	12.719	10.0945	10.0716
524	218.6911	163.3007	221.7476	208.0149	215.5352	222.5407	233.6622	218.4296	209.9428	196.0379	187.3027	176.101	172.3372	164.8795	161.9798	162.1066	160.2901	157.2374	158.0938	159.9711	154.4662	148.585	144.751	140.0562	135.0376	130.0469	123.3787	114.7515	102.4835	94.8174	87.1362	79.3303	73.7773	67.9288	63.7699	58.1557	54.7001	49.711	44.9713	40.8316	37.5125	34.4403	32.6344	31.299	28.8956	26.8678	23.9317	19.48	11.8576	11.7711	12.6566	10.7858	10.7612
526	214.8916	165.7844	218.5978	194.9112	204.8296	219.1063	223.8844	214.7947	201.6161	193.3756	176.7722	174.0343	168.2171	161.8301	156.775	158.1405	154.3559	156.2721	152.2189	153.8614	150.2279	146.4403	140.3209	134.945	130.1071	127.3259	118.766	112.0732	101.8226	94.3165	87.2711	78.2064	72.3387	67.2357	61.4344	56.4201	53.2621	48.9979	45.403	40.5256	37.1605	34.0548	32.5642	30.8418	29.1966	26.7886	23.8677	20.2541	13.8696	9.931	13.2314	11.0865	11.0612
528	211.0924	168.3954	208.6342	181.6014	206.0309	210.2227	213.9807	209.9487	197.0151	186.6051	177.4945	168.1574	165.1007	155.8245	152.9658	154.3473	151.694	150.7943	151.141	148.8713	149.0714	142.1477	136.5504	132.6634	128.6299	125.3977	118.6381	109.2848	98.5925	91.2081	82.4617	77.0442	70.3082	65.6174	62.8204	56.0616	52.1339	47.4546	44.6543	40.3216	36.8154	34.0166	32.3609	30.3863	28.8729	26.1404	23.8545	21.237	14.6049	8.7206	11.2364	11.2936	11.2679
530	207.1427	171.0215	172.6072	188.1482	195.8746	201.0756	203.7907	207.8703	195.6059	180.9214	178.9364	166.364	158.9792	152.7685	151.6955	147.976	145.5409	148.5406	145.4803	145.3619	142.1978	139.4161	131.8099	126.8998	125.1814	122.2123	115.4349	107.8541	97.816	91.3381	81.1043	74.5006	68.1874	65.2489	60.2252	55.7774	52.4126	47.3317	44.2785	39.3036	36.4514	33.9677	31.851	29.9113	28.1226	26.2162	23.8836	21.2589	16.5048	8.776	9.8641	11.7798	11.753
532	203.0733	173.6888	125.4513	192.8936	185.4641	190.7685	193.3449	201.3602	194.1056	180.7053	171.3654	162.2064	154.6347	148.9603	147.8392	144.4152	146.5443	141.2538	139.7445	143.9436	138.7351	133.2254	128.8954	125.0142	122.2225	119.4815	112.1397	103.7943	94.9781	86.8177	80.6811	73.5967	68.9998	63.2557	60.2272	54.1346	51.104	48.1776	43.2775	39.6304	36.0738	33.6189	31.3247	29.4209	27.443	26.5597	23.8512	21.1382	16.6773	9.7115	7.6789	11.3458	11.32
534	198.852	176.3714	135.7991	179.2103	174.7687	179.2417	182.6113	193.6053	188.189	172.8639	167.0949	157.6151	151.3314	147.673	143.1502	141.0818	139.926	138.3373	136.6352	135.0469	137.1388	129.6988	125.89	121.0924	119.3449	116.0837	112.6727	103.046	93.6012	86.6528	80.0213	72.5936	67.2297	62.3737	57.3963	54.3199	50.2913	46.1072	44.0148	40.6661	35.6772	33.1034	30.8458	28.9107	27.0868	26.3221	24.6476	21.6395	17.6593	10.9858	4.8093	9.5643	9.5425
536	194.5797	179.1621	146.4433	181.5151	163.8744	167.5	176.9611	184.7388	183.1436	168.6988	159.3213	152.4927	149.7847	136.4858	135.6695	136.4325	136.6904	133.7243	133.0871	131.5478	130.6341	125.8113	123.4069	117.8008	115.5572	114.7814	106.264	98.9136	91.9061	84.289	76.877	71.4932	66.009	60.8058	56.1189	51.9257	48.5155	45.8531	43.3677	39.7533	35.5541	32.5834	30.3628	28.4908	26.7286	25.5131	24.5033	21.9424	18.7907	13.9601	5.4406	8.0432	8.0249
538	190.2462	158.5175	157.3989	171.4267	152.7622	163.9811	168.1336	175.7035	176.1231	167.1453	156.5189	151.4251	143.3208	137.7918	134.8737	131.8297	132.5733	131.485	132.676	131.0245	128.7811	123.5361	118.32	114.4356	114.8817	108.7817	103.6783	96.5994	88.3135	81.6478	75.4837	69.8853	64.6549	59.3761	56.8683	52.6447	49.6263	45.0474	42.4738	38.2579	34.2928	32.0576	29.9223	28.1149	26.3673	24.5726	23.6999	21.6398	18.1105	15.2236	5.8314	5.7956	5.7824
540	185.7475	170.5579	168.5962	166.4582	151.575	154.1882	159.0441	166.3991	171.5151	158.1871	153.6021	148.9543	138.2559	136.3124	131.4365	128.6883	127.4863	124.827	125.2418	122.9633	123.5423	118.9385	114.5495	113.6319	107.5445	106.5528	101.9226	95.4837	87.9259	80.9736	74.6142	66.2753	64.218	58.7619	55.3281	50.6871	47.8907	44.8957	41.1072	37.6695	35.1683	31.5088	29.5584	27.721	25.9888	24.0222	23.0181	20.9524	18.1896	16.3154	8.6851	2.3223	2.317
542	181.5108	169.7565	155.6379	143.2771	154.7921	144.4586	149.7428	157.1956	170.6806	154.734	148.5647	146.5657	135.5783	129.2596	125.5541	123.6091	122.9786	124.0394	120.9596	120.2866	121.1143	116.3844	113.6672	110.9059	110.331	104.9018	98.4565	91.8891	84.4494	79.339	72.441	65.6961	61.4775	57.8023	53.2356	50.078	46.1429	43.7427	40.5439	37.1599	33.9621	30.1572	29.2446	27.4168	25.5858	23.5057	22.5184	21.5782	18.1229	16.2656	11.2487	1.7824	1.7783
544	183.7841	137.3211	94.3912	58.0117	149.2525	134.3983	139.8132	147.6701	158.5993	154.8066	146.4877	140.9006	133.5858	125.2024	125.9118	123.5441	122.9083	122.3559	119.609	117.9036	117.1277	112.9053	110.8363	107.2691	105.7157	102.5631	98.4472	90.2748	83.2009	76.3001	71.3758	64.731	60.6367	56.6165	51.8315	50.2567	45.9695	42.5669	39.8822	36.8238	34.1307	31.9669	28.9095	27.0924	25.0247	22.9644	22.4781	20.9061	17.9645	15.913	12.1686	2.8277	2.8213
546	199.3879	150.5955	105.3728	79.6186	147.4123	123.9405	129.4839	141.0532	150.1741	147.7252	141.6112	134.1912	128.3143	126.1283	120.2573	117.3542	115.1416	118.536	115.6982	114.5642	112.9368	110.1887	107.0741	103.2048	102.0246	97.4187	94.4449	87.7142	80.0491	74.9386	68.6135	63.7253	59.4425	54.5405	51.1723	49.0496	45.2469	41.8563	39.4785	37.1942	35.1955	31.3675	28.5375	26.5967	24.424	22.386	20.486	20.061	18.4736	16.3874	13.6457	6.1146	6.1007
548	201.9806	162.549	115.8555	101.7936	149.1418	113.1068	128.3037	133.4599	141.3977	136.6161	135.2501	130.4178	127.4664	120.7154	117.5183	115.657	115.4522	111.7908	110.6996	110.2092	109.0653	107.2756	105.8133	102.3221	99.5093	97.1986	90.8832	84.6757	79.9945	72.658	68.1841	62.2599	58.053	54.4465	51.1391	46.4872	43.5537	42.2921	38.6139	35.7673	33.1416	29.8785	28.1297	25.9948	23.8426	21.772	20.086	19.7838	17.7162	16.5254	14.2058	8.4226	8.4034
550	196.2892	174.7763	133.6372	124.5742	144.679	118.0264	120.1711	125.6355	132.3598	141.449	135.6862	128.8374	117.4886	117.8231	113.0594	111.9967	111.4934	108.371	106.079	107.9198	105.8166	104.5531	101.4164	98.0092	96.37	93.3245	88.9706	83.3389	77.8005	70.606	66.0556	60.4213	55.7043	51.5084	49.1595	45.4032	43.1976	40.6034	39.092	35.6153	32.8126	31.3822	27.0233	25.3689	23.2385	21.3206	19.6693	18.8561	17.7539	15.4927	13.8574	10.773	10.7485
552	189.6965	187.8111	159.4884	148.3856	138.5844	114.2921	112.1192	117.3211	123.4101	131.1414	125.8955	126.5199	116.978	111.692	110.6089	106.0476	107.2496	105.4435	104.3819	104.5959	101.7846	99.8319	98.3013	95.392	94.9122	92.7511	88.1507	81.3537	76.4728	69.4748	64.0028	59.0517	55.072	50.676	47.3665	46.2336	41.8202	39.9078	37.3611	33.8394	32.8221	29.3097	26.9086	24.7886	22.7687	21.0037	19.2898	17.3095	17.5333	16.3213	13.5916	11.3102	11.2844
554	183.0211	201.1824	163.9746	132.1897	104.8939	122.0363	103.7762	108.1053	114.1386	132.6007	125.3436	118.055	114.8686	110.1285	104.6018	105.6135	103.1592	100.3219	103.1657	99.4343	98.4969	95.5229	93.632	91.1689	88.9743	88.6144	84.469	80.8929	74.9915	68.9177	63.9541	58.9619	54.794	50.894	46.0161	42.864	41.2642	38.8293	36.1647	34.554	31.9971	28.5986	26.5059	24.179	22.4636	20.6673	18.8897	16.7832	17.0668	15.8028	13.6533	11.7594	11.7326
556	200.9286	163.2845	103.3208	52.6941	9.6891	123.3443	95.1781	98.6094	116.9176	124.4048	116.7074	117.717	111.2177	106.2938	103.416	101.1607	99.521	99.1743	100.0457	98.1473	95.8014	96.2534	91.843	88.7075	86.6872	84.1119	83.4184	77.4173	72.4809	66.2539	61.1914	54.3823	52.2162	49.5177	45.9252	42.7894	40.1854	36.9184	35.3119	33.4663	31.2948	28.377	27.0403	24.4385	22.1474	20.2912	18.4502	16.2392	15.8702	15.4916	13.8511	11.5279	11.5016
558	214.0561	186.2585	116.4931	57.673	31.7699	122.7995	86.3145	102.7215	108.7895	115.9521	122.3804	109.5159	108.7066	102.9756	102.5285	99.8822	97.8512	95.8982	95.1823	94.6815	92.6381	90.3184	87.7013	87.8085	85.9383	84.9448	79.586	76.6608	70.0883	63.4547	59.2451	54.1289	50.9342	47.1821	44.2593	41.3638	38.3486	37.0087	34.2162	31.9865	30.3822	28.4853	25.3795	23.4863	21.8191	19.9014	17.9438	15.6769	14.4349	15.2149	13.5626	12.4835	12.4551
560	195.0008	166.1684	115.7737	56.2644	54.5852	109.7989	91.9397	94.3423	100.3687	107.194	115.6393	112.9606	104.0991	97.9484	96.6649	97.2661	92.5802	94.4811	92.1741	91.4483	89.1438	88.9835	88.0312	82.7741	83.1613	80.7349	76.3733	70.8281	67.3435	61.9308	57.4523	53.7731	49.9878	46.1422	42.8194	40.0611	38.6976	37.1681	31.411	31.4497	28.5992	27.3584	26.3636	24.0622	21.4706	19.4388	17.4133	15.0899	12.6357	15.4628	13.6812	12.0314	12.004
562	201.4174	170.9735	114.9741	68.2278	78.1383	116.6874	97.6809	85.6714	91.557	98.1272	107.0779	107.9783	102.3313	93.9757	93.0356	90.6803	92.0472	90.0221	89.6798	89.2585	86.1782	85.7419	81.3415	80.3341	78.9121	80.3965	73.1133	70.2707	65.1421	60.5575	56.0699	50.9256	48.6153	44.2024	41.7748	38.2248	36.9149	35.9735	32.6684	31.292	28.9791	27.2772	25.4857	22.7216	21.1006	18.9261	16.8398	14.4775	12.7348	14.2572	13.4096	12.061	12.0335
564	178.5644	157.158	114.1	94.2261	102.4375	108.7295	101.0708	76.7145	82.3568	88.7581	103.6416	103.8548	94.7651	92.0753	90.3064	89.2919	86.7181	88.8441	84.8428	84.9149	84.5981	81.248	78.954	77.9381	78.0898	75.6325	70.6646	67.0086	63.3166	57.6613	54.9142	50.6749	46.2936	43.6709	40.6406	38.4635	36.0441	33.5582	32.4288	29.9891	28.5062	26.8205	24.6569	23.5399	21.3044	18.3899	16.2419	14.1215	12.8312	13.4552	12.0338	12.5238	12.4952
566	187.9119	154.0562	113.2205	100.1343	88.7629	78.4301	97.792	67.5141	72.9074	87.2852	97.5805	99.1552	93.553	88.4197	87.2485	84.0489	84.7271	84.5177	82.9298	84.3828	81.0498	78.4925	77.7806	74.4568	74.3229	73.1343	68.4205	65.8242	60.6261	57.2013	51.3121	49.3749	46.2196	42.4119	39.5075	37.2336	35.5797	33.5356	30.5258	28.7457	27.6112	25.1668	23.6987	22.3228	20.577	17.8411	15.7708	13.8998	12.9329	12.389	12.5512	11.1175	11.0922
568	155.4114	180.6145	142.9704	90.1324	45.1801	6.6683	102.2422	58.0522	73.2746	80.6472	91.3525	96.9265	91.6072	87.9234	85.6705	83.4574	81.9596	81.0333	78.6531	79.2263	78.1111	77.9761	73.6794	74.4904	71.4926	70.7672	67.2846	62.29	59.6554	56.7986	51.6912	46.5538	43.0755	41.7539	39.4326	36.4227	33.5047	31.8816	30.0528	27.5357	26.6967	25.1904	22.8719	22.062	20.5581	17.278	15.5756	13.6734	13.0396	12.085	12.6082	11.1754	11.1499
570	163.8853	154.6702	143.3038	91.0218	46.5349	25.9589	92.7329	60.1983	66.4863	73.7716	84.8937	95.3569	89.6371	83.4233	83.6237	81.9648	77.9018	78.5516	74.5464	78.6245	76.5042	73.9422	72.8981	72.0217	68.8975	67.4059	64.6924	60.1359	57.1298	53.1483	50.0094	45.3064	42.6796	39.6816	37.9387	35.0393	33.0359	31.3947	28.8292	28.1619	25.9771	24.0184	22.2012	21.4067	20.4454	17.5954	15.367	13.7866	13.0487	11.7659	12.2528	11.197	11.1715
572	139.8431	152.4649	144.8023	94.5669	49.1496	45.9759	91.4943	72.765	59.5942	67.1063	78.3722	90.6798	87.0029	83.3141	79.525	77.3483	75.1101	75.7601	74.4059	74.2802	73.0537	72.1945	70.2429	68.9202	68.6358	67.2148	62.5506	59.3512	54.6132	52.8232	48.0456	43.5246	41.0901	39.4269	35.8428	33.61	31.7718	31.0977	28.5064	26.4025	25.0128	22.6161	23.1009	21.2923	19.9798	17.3941	15.1773	13.9266	12.8873	11.456	10.8172	11.4619	11.4358
574	146.183	138.3291	146.5239	98.1803	61.7065	66.7104	98.0125	69.7816	52.4371	60.4886	71.5868	89.5294	79.1165	78.9871	79.3932	73.0036	72.3698	72.5799	71.1837	72.1801	70.359	69.0475	67.811	64.1902	63.7032	64.2531	62.377	58.8531	55.8076	50.2563	45.5237	42.3358	40.5997	37.0982	35.8487	33.0128	30.5583	29.3066	26.763	26.1163	23.2825	23.1832	21.9597	20.5489	19.3282	16.9961	14.9722	13.8667	12.7128	11.1289	9.5037	10.6906	10.6663
576	161.3318	135.4755	135.2421	101.8606	84.7488	88.167	92.617	73.36	45.0153	53.6186	76.9396	83.2109	75.7673	74.9649	74.6784	72.2563	72.558	70.9931	69.585	67.861	66.3808	66.3635	65.8775	62.5886	62.8932	61.8907	58.9364	56.1898	52.0912	47.665	44.6186	42.1439	39.2875	36.0779	34.7981	32.1327	30.4189	28.7639	26.1822	25.1543	23.9335	22.1413	21.129	19.5068	18.7215	17.0248	14.7516	13.6969	12.396	10.7843	9.1619	9.7861	9.7639
578	168.5799	119.7933	136.4577	105.6079	85.4086	67.5876	53.1973	75.4516	37.3299	65.1037	68.8511	76.6419	75.5367	74.7198	71.8737	71.249	68.5276	68.4794	68.9702	65.0477	64.6069	64.517	63.8419	61.1816	60.8693	59.1291	57.53	53.8568	50.6672	46.7924	43.2187	40.6792	37.9514	34.6507	33.9721	31.0887	30.4365	28.2375	26.5343	25.1294	23.4831	21.5217	20.4897	19.2065	18.1903	16.3887	15.4061	13.5138	12.0619	10.3665	8.8037	9.2831	9.2619
580	123.5054	115.488	140.438	110.1136	71.2693	37.7371	9.2322	75.3666	54.9379	57.0752	60.4718	69.8245	73.5702	69.9576	67.4565	67.5452	65.2028	65.9404	66.0882	63.4851	64.9465	61.7227	61.0223	58.6369	59.2665	58.376	54.4484	51.8783	48.6222	44.8767	41.9208	38.2917	38.0755	34.455	33.3444	30.4781	28.5527	26.2398	26.2539	24.8928	22.778	20.947	19.9539	18.7723	17.6399	16.4288	14.7893	13.3176	11.6822	9.9013	8.4291	7.9011	7.8831
582	142.2104	113.1973	111.6946	102.0625	66.2144	35.254	21.5341	73.3212	54.4106	48.7832	52.732	62.7775	72.2259	67.806	68.2871	65.158	64.9849	64.1179	61.9763	61.995	62.6253	61.2574	60.5736	57.6114	57.376	56.1363	53.7558	50.0718	47.4742	44.1611	40.2184	39.3007	36.5483	33.5338	30.4786	30.3587	28.5069	26.906	24.3714	23.0041	22.1358	20.6059	19.5994	18.2921	17.1446	16.2485	14.36	13.1122	11.2303	9.4189	8.0407	6.6705	6.6553
584	94.7957	100.2637	97.6331	95.2501	66.7427	35.3308	34.242	76.7744	55.8166	40.2092	45.6523	55.4786	68.6431	66.8068	63.8045	61.8644	63.2239	61.885	60.9501	60.0428	59.5009	57.6554	56.4473	55.2017	55.3081	54.6817	51.3889	48.7172	45.8258	43.1882	38.988	36.9635	34.4906	32.5412	30.8756	29.226	25.9707	25.4536	22.4038	22.0738	20.3876	20.6446	19.4982	17.4803	17.344	15.2776	14.1416	12.2443	10.7581	9.0355	7.6357	5.7407	4.1288
586	96.3264	79.8721	101.877	96.5337	67.2438	42.2898	47.3505	75.3265	57.7687	31.3489	38.3266	57.3464	63.7952	60.5441	64.0185	59.5203	60.3448	61.781	59.1121	59.1003	56.3224	57.6323	54.4124	54.3362	53.9128	50.5707	51.4707	49.2251	42.3816	40.7327	38.0633	34.5212	32.6581	30.4951	28.8437	28.2866	25.22	24.5869	23.7339	21.3233	20.1522	19.4911	18.2948	16.7372	16.6479	15.6914	14.779	12.4188	10.2641	8.634	7.3739	4.7781	1.2611
588	65.9427	94.3133	97.2625	95.1898	67.718	56.4625	60.8555	66.6617	52.8471	22.208	45.3811	51.2852	58.7616	60.9095	56.9213	59.3138	58.0802	57.1302	57.6895	55.0423	52.9593	53.8347	54.0128	52.8475	51.0709	49.4608	49.5216	46.4993	41.6505	39.0201	37.719	34.161	31.711	30.1102	29.0694	27.1702	24.8222	23.9672	22.5065	21.7642	20.1934	18.6626	18.0128	17.3411	15.9309	14.8833	13.7255	12.0122	9.7485	8.2967	7.1813	3.783	0
590	106.2576	88.1797	98.3134	86.4704	68.1762	59.9215	53.722	49.5715	56.0346	34.1494	39.3494	45.0241	53.5541	59.6997	57.3236	58.5043	58.7532	54.2777	55.9475	53.5823	54.4402	51.3239	51.2307	49.9919	49.9665	49.7557	47.6045	44.8151	39.8027	38.2319	36.5856	33.8766	31.442	29.4507	27.4264	26.5276	23.6834	23.1039	22.359	20.3979	18.8876	18.9417	17.2503	16.5998	16.5619	14.9251	14.2535	11.9104	9.2131	8.1114	6.5925	2.7565	0
592	107.3619	79.6348	103.494	100.5453	82.8894	54.195	30.1508	8.9548	51.6481	42.2089	33.2467	39.2643	48.3472	56.7235	55.0254	52.7847	55.1523	55.2234	52.3233	53.1862	51.5486	50.9927	50.6443	48.8243	49.6478	47.3316	44.9562	44.1257	38.7419	37.4568	34.7203	31.8896	31.5929	27.8998	27.6833	25.4252	23.3452	22.6698	21.266	21.3703	19.2812	17.7561	16.8837	16.1171	15.3354	14.1693	13.3789	12.1076	10.1081	7.9457	5.6108	2.4821	0
594	125.1784	78.0516	90.4436	84.711	93.7442	61.8395	29.1046	20.174	55.5057	39.2847	26.9047	33.8443	42.9223	54.3647	54.697	54.8379	51.4976	52.7726	51.7302	51.2554	50.2936	48.8857	46.6988	47.0985	47.5326	44.8498	43.3014	41.4643	37.6134	36.7905	34.4212	31.6331	29.3092	27.9228	26.3732	24.1873	23.0272	21.9329	20.813	19.7203	18.037	17.3808	16.3937	15.5174	15.4983	13.9672	13.0954	12.3711	10.4204	7.7688	5.0673	0	0
596	110.7312	91.7594	85.7551	94.5149	98.5348	52.7349	40.182	31.8141	60.881	41.799	20.3327	28.2248	41.8992	50.2022	50.7767	50.1629	50.9516	50.8973	52.5753	48.7403	49.7162	49.0713	45.3862	46.1919	45.4032	44.4302	43.7381	41.7232	37.9009	34.7331	33.7777	30.7509	27.8461	26.5147	25.4094	23.3076	22.3492	20.1831	19.5058	18.201	17.9993	17.2985	16.261	15.1484	13.6985	13.7442	13.3441	11.3782	9.9082	7.5839	5.1418	0	0
598	100.8847	97.8667	78.5995	85.2619	81.7819	63.9916	52.7251	43.8913	59.8133	41.4424	13.5223	28.555	37.4596	45.8791	49.8809	48.8275	49.4164	47.2752	48.0263	48.9739	44.2265	47.6409	43.4119	44.3548	42.1235	44.3551	41.2814	39.9221	35.8925	33.9963	32.2347	28.8213	28.0332	25.6536	25.7438	23.3592	21.9921	20.0947	20.193	18.0932	17.6249	16.6625	15.6355	14.696	14.2819	13.0355	12.3629	11.3113	9.9749	8.0441	0	0	0
600	127.2551	81.5478	77.7918	68.2302	93.4046	77.9096	65.7115	56.399	49.3942	37.9056	15.1385	23.9149	32.8373	41.3719	49.9521	46.073	46.7147	46.2876	46.4881	46.0159	46.2688	44.366	44.4582	42.5519	41.924	42.4914	39.9231	38.1999	36.0929	33.0226	31.9272	28.9788	27.5757	25.1724	23.6376	22.1449	21.4475	20.7199	18.0987	17.3059	17.2803	15.0835	14.8678	15.0335	14.3203	12.6203	11.9828	10.9699	9.8203	7.9971	0	0	0
