Description	Scan series EEM_1.prn through EEM_53.prn																																																				
EEM type	"Dilution- & Scatter-corrected, Calibrated Data (ppb QSE)"																																																				
Scan date	1/19/2012 13:32																																																				
Excitation	240-500nm by 5nm																																																				
Emission	290-600nm by 2nm																																																				
Calibration	Michael_Fluoromax4_April08 (07-Apr-2008)																																																				
Slit settings	"5nm Excitation, 5nm Emission"																																																				
Dilution	25																																																				
Row 1	Excitation(nm)																																																				
Col 1	Emission(nm)																																																				
Data	Fluorescence(ppb QSE)																																																				
																																																					
	240	245	250	255	260	265	270	275	280	285	290	295	300	305	310	315	320	325	330	335	340	345	350	355	360	365	370	375	380	385	390	395	400	405	410	415	420	425	430	435	440	445	450	455	460	465	470	475	480	485	490	495	500
290	0	0	0	0	0	0	0	0	0	0	0	0	0	0	0	0	0	0	0	0	0	0	0	0	0	0	0	0	0	0	0	0	0	0	0	0	0	0	0	0	0	0	0	0	0	0	0	0	0	0	0	0	0
292	0	0	0	0	0	0	0	0.7302	0	0	0	0	0	0	0	0	0	0	0	0	0	0	0	0	0	0	0	0	0	0	0	0	0	0	0	0	0	0	0	0	0	0	0	0	0	0	0	0	0	0	0	0	0
294	0	0	0	0	0	0	0	1.4446	0	0	0	0	0	0	0	0	0	0	0	0	0	0	0	0	0	0	0	0	0	0	0	0	0	0	0	0	0	0	0	0	0	0	0	0	0	0	0	0	0	0	0	0	0
296	0	0	0	0	0	0	2.1958	2.1401	0	0	0	0	0	0	0	0	0	0	0	0	0	0	0	0	0	0	0	0	0	0	0	0	0	0	0	0	0	0	0	0	0	0	0	0	0	0	0	0	0	0	0	0	0
298	0	0	0	0	0	0	4.3311	2.8139	1.5679	0	0	0	0	0	0	0	0	0	0	0	0	0	0	0	0	0	0	0	0	0	0	0	0	0	0	0	0	0	0	0	0	0	0	0	0	0	0	0	0	0	0	0	0
300	0	0	0	0	0	2.2604	5.6938	3.4679	3.0919	0	0	0	0	0	0	0	0	0	0	0	0	0	0	0	0	0	0	0	0	0	0	0	0	0	0	0	0	0	0	0	0	0	0	0	0	0	0	0	0	0	0	0	0
302	0	0	0	0	0	4.5286	6.416	6.672	4.6456	0	0	0	0	0	0	0	0	0	0	0	0	0	0	0	0	0	0	0	0	0	0	0	0	0	0	0	0	0	0	0	0	0	0	0	0	0	0	0	0	0	0	0	0
304	0	0	0	0	0	6.8046	7.1405	9.8874	6.2045	2.3343	0	0	0	0	0	0	0	0	0	0	0	0	0	0	0	0	0	0	0	0	0	0	0	0	0	0	0	0	0	0	0	0	0	0	0	0	0	0	0	0	0	0	0
306	0	0	0	0	0	9.0838	10.4403	12.27	7.7648	4.6742	0	0	0	0	0	0	0	0	0	0	0	0	0	0	0	0	0	0	0	0	0	0	0	0	0	0	0	0	0	0	0	0	0	0	0	0	0	0	0	0	0	0	0
308	0	0	0	0	0	11.3629	13.7416	13.8131	11.5135	7.0163	0	0	0	0	0	0	0	0	0	0	0	0	0	0	0	0	0	0	0	0	0	0	0	0	0	0	0	0	0	0	0	0	0	0	0	0	0	0	0	0	0	0	0
310	0	0	0	0	0	11.7348	17.0479	15.3582	15.2682	9.3618	3.022	0	0	0	0	0	0	0	0	0	0	0	0	0	0	0	0	0	0	0	0	0	0	0	0	0	0	0	0	0	0	0	0	0	0	0	0	0	0	0	0	0	0
312	0	0	0	0	0	11.8573	20.2365	18.9567	18.1872	11.64	6.0121	0	0	0	0	0	0	0	0	0	0	0	0	0	0	0	0	0	0	0	0	0	0	0	0	0	0	0	0	0	0	0	0	0	0	0	0	0	0	0	0	0	0
314	0	0	0	0	0	18.4376	23.3905	22.5163	20.3511	15.5359	8.9703	0	0	0	0	0	0	0	0	0	0	0	0	0	0	0	0	0	0	0	0	0	0	0	0	0	0	0	0	0	0	0	0	0	0	0	0	0	0	0	0	0	0
316	0	0	0	0	0	15.8666	28.8821	25.9507	22.4162	19.3256	11.8572	2.9657	0	0	0	0	0	0	0	0	0	0	0	0	0	0	0	0	0	0	0	0	0	0	0	0	0	0	0	0	0	0	0	0	0	0	0	0	0	0	0	0	0
318	3.9595	0	0	0	8.5401	24.7307	33.0287	29.2236	25.9316	22.4334	14.6431	5.8601	0	0	0	0	0	0	0	0	0	0	0	0	0	0	0	0	0	0	0	0	0	0	0	0	0	0	0	0	0	0	0	0	0	0	0	0	0	0	0	0	0
320	7.5224	0	0	0	9.2272	27.1497	34.5136	32.409	29.3549	24.9296	16.9794	8.683	0	0	0	0	0	0	0	0	0	0	0	0	0	0	0	0	0	0	0	0	0	0	0	0	0	0	0	0	0	0	0	0	0	0	0	0	0	0	0	0	0
322	14.2497	0	0	3.6746	9.2129	18.534	36.3964	34.1266	32.5342	27.2304	19.1641	11.3815	3.095	0	0	0	0	0	0	0	0	0	0	0	0	0	0	0	0	0	0	0	0	0	0	0	0	0	0	0	0	0	0	0	0	0	0	0	0	0	0	0	0
324	10.6596	5.7734	0	10.1784	17.1331	31.5395	36.8655	36.4429	35.5868	29.087	21.3852	13.9819	6.0836	0	0	0	0	0	0	0	0	0	0	0	0	0	0	0	0	0	0	0	0	0	0	0	0	0	0	0	0	0	0	0	0	0	0	0	0	0	0	0	0
326	48.1252	0	0	9.2191	20.8068	28.0472	38.3047	46.1371	38.4955	30.8479	23.6258	16.9746	8.9616	0	0	0	0	0	0	0	0	0	0	0	0	0	0	0	0	0	0	0	0	0	0	0	0	0	0	0	0	0	0	0	0	0	0	0	0	0	0	0	0
328	21.4144	4.1246	10.0865	4.0465	24.6679	31.1274	38.1167	44.7408	42.8148	32.5102	25.7584	19.8397	11.7251	3.0805	0	0	0	0	0	0	0	0	0	0	0	0	0	0	0	0	0	0	0	0	0	0	0	0	0	0	0	0	0	0	0	0	0	0	0	0	0	0	0
330	18.5158	20.6547	8.4705	14.2648	23.8149	33.493	40.8197	49.0664	44.5839	34.0864	28.2505	22.4232	14.3765	6.0435	0	0	0	0	0	0	0	0	0	0	0	0	0	0	0	0	0	0	0	0	0	0	0	0	0	0	0	0	0	0	0	0	0	0	0	0	0	0	0
332	46.4741	24.7918	14.1783	16.7584	23.7576	41.377	37.8728	50.3338	51.8888	35.1951	30.2979	24.4695	17.1159	8.7937	0	0	0	0	0	0	0	0	0	0	0	0	0	0	0	0	0	0	0	0	0	0	0	0	0	0	0	0	0	0	0	0	0	0	0	0	0	0	0
334	42.6746	19.2872	18.0423	22.0337	28.4026	36.9874	41.3605	44.328	47.7433	47.3566	32.1657	26.3473	19.659	11.3627	3.1176	0	0	0	0	0	0	0	0	0	0	0	0	0	0	0	0	0	0	0	0	0	0	0	0	0	0	0	0	0	0	0	0	0	0	0	0	0	0
336	47.8987	30.8489	20.4431	29.5335	30.8625	41.0286	40.2329	46.1915	47.0509	43.3313	33.8884	28.4341	21.9089	13.7642	6.0426	0	0	0	0	0	0	0	0	0	0	0	0	0	0	0	0	0	0	0	0	0	0	0	0	0	0	0	0	0	0	0	0	0	0	0	0	0	0
338	44.0372	34.5278	25.0378	20.609	33.7291	42.5405	39.5096	45.0099	50.0764	50.2528	35.4741	30.3671	23.8854	16.7526	8.784	0	0	0	0	0	0	0	0	0	0	0	0	0	0	0	0	0	0	0	0	0	0	0	0	0	0	0	0	0	0	0	0	0	0	0	0	0	0
340	56.1151	29.1204	29.3261	31.0774	36.8791	43.2888	43.123	46.212	49.6806	47.5754	41.6993	32.12	25.6921	19.523	11.3386	3.3603	0	0	0	0	0	0	0	0	0	0	0	0	0	0	0	0	0	0	0	0	0	0	0	0	0	0	0	0	0	0	0	0	0	0	0	0	0
342	56.6496	35.951	29.0429	31.287	33.2268	41.5757	42.9041	48.6278	48.6184	46.4294	41.4278	33.8768	28.1772	21.9618	13.781	6.5348	0	0	0	0	0	0	0	0	0	0	0	0	0	0	0	0	0	0	0	0	0	0	0	0	0	0	0	0	0	0	0	0	0	0	0	0	0
344	58.6719	33.6819	30.4647	31.9577	38.8588	43.8733	46.273	48.6622	50.9726	49.4847	41.4146	35.4823	30.4798	24.0031	17.5172	9.5234	0	0	0	0	0	0	0	0	0	0	0	0	0	0	0	0	0	0	0	0	0	0	0	0	0	0	0	0	0	0	0	0	0	0	0	0	0
346	54.246	42.0268	42.7265	31.9418	38.3384	38.7403	46.5129	47.3845	48.2955	48.7427	47.2343	39.2986	32.6855	25.9556	21.0668	12.3582	3.2778	0	0	0	0	0	0	0	0	0	0	0	0	0	0	0	0	0	0	0	0	0	0	0	0	0	0	0	0	0	0	0	0	0	0	0	0
348	63.7403	56.9513	35.7081	40.1728	37.7006	44.8239	49.4416	51.0742	48.6041	52.277	46.1486	45.0986	34.8181	29.2121	24.002	15.0636	6.3927	0	0	0	0	0	0	0	0	0	0	0	0	0	0	0	0	0	0	0	0	0	0	0	0	0	0	0	0	0	0	0	0	0	0	0	0
350	72.6169	58.6519	48.9094	43.2445	40.4696	52.1598	53.9142	50.2145	55.3353	50.9237	49.7992	44.0175	36.7997	32.2692	26.3128	17.7924	9.3446	1.7826	0	0	0	0	0	0	0	0	0	0	0	0	0	0	0	0	0	0	0	0	0	0	0	0	0	0	0	0	0	0	0	0	0	0	0
352	81.4605	53.1472	49.8909	48.5205	45.004	48.4748	51.0997	52.6045	51.2116	52.8758	52.0614	46.8181	40.366	35.1339	28.4758	20.362	12.1356	3.903	0	0	0	0	0	0	0	0	0	0	0	0	0	0	0	0	0	0	0	0	0	0	0	0	0	0	0	0	0	0	0	0	0	0	0
354	81.3038	61.6227	54.9262	46.6314	50.8383	49.4532	51.1523	56.4113	57.8851	53.9005	55.6111	48.6618	43.7653	37.8003	30.6539	22.7695	15.8227	9.1221	3.492	0	0	0	0	0	0	0	0	0	0	0	0	0	0	0	0	0	0	0	0	0	0	0	0	0	0	0	0	0	0	0	0	0	0
356	75.1098	65.5268	49.8957	57.9677	54.7684	52.6003	58.3471	58.6993	57.6889	57.2856	55.8788	53.2345	47.9652	40.407	33.8112	27.1659	20.4692	14.0986	8.3093	0.5836	0	0	0	0	0	0	0	0	0	0	0	0	0	0	0	0	0	0	0	0	0	0	0	0	0	0	0	0	0	0	0	0	0
358	74.9627	67.0026	63.4979	59.796	58.7956	59.2198	59.4255	58.4226	58.6969	60.4886	55.5795	56.016	54.2405	46.2842	37.9122	31.4287	25.1123	18.8855	12.5683	6.1104	0.6165	0	0	0	0	0	0	0	0	0	0	0	0	0	0	0	0	0	0	0	0	0	0	0	0	0	0	0	0	0	0	0	0
360	109.8747	91.6254	67.9169	68.455	61.446	58.8525	58.8035	57.2478	62.8496	62.9108	61.5922	60.4819	57.4345	49.8357	41.8037	35.6346	29.5353	23.4521	17.6727	9.6014	2.3852	0	0	0	0	0	0	0	0	0	0	0	0	0	0	0	0	0	0	0	0	0	0	0	0	0	0	0	0	0	0	0	0
362	98.79	85.7868	81.0694	70.494	63.8153	68.6514	66.3914	66.5878	64.8745	63.8127	64.9476	63.8515	62.7332	53.3666	45.8068	39.9787	33.9774	28.4219	22.698	13.958	6.5318	0.8948	0	0	0	0	0	0	0	0	0	0	0	0	0	0	0	0	0	0	0	0	0	0	0	0	0	0	0	0	0	0	0
364	107.7656	97.198	84.5291	72.4094	75.6998	72.429	69.5306	68.5968	69.5021	69.4234	66.5771	67.4523	63.9804	58.0181	51.5483	44.1707	38.2676	34.0693	27.5592	20.2243	10.3131	3.9581	0	0	0	0	0	0	0	0	0	0	0	0	0	0	0	0	0	0	0	0	0	0	0	0	0	0	0	0	0	0	0
366	129.7069	105.9276	97.4841	84.7639	72.8396	75.5856	73.3825	67.5964	72.0962	73.3495	72.2761	70.3001	69.4004	65.6636	58.3532	48.2504	43.2698	39.5579	32.2829	24.5686	14.3186	6.9892	1.2253	0	0	0	0	0	0	0	0	0	0	0	0	0	0	0	0	0	0	0	0	0	0	0	0	0	0	0	0	0	0
368	143.119	102.8653	95.4374	87.4213	86.7248	86.9837	82.8893	76.384	76.1459	76.0783	76.2	77.0111	77.2532	69.4517	62.71	52.2294	48.5521	44.0751	36.7307	28.7958	18.3667	9.7466	3.4275	0	0	0	0	0	0	0	0	0	0	0	0	0	0	0	0	0	0	0	0	0	0	0	0	0	0	0	0	0	0
370	144.7218	123.5077	100.1496	96.7833	89.8913	85.4312	83.8265	80.1533	81.8398	81.4511	83.765	81.8138	80.0998	75.528	73.2012	63.8524	53.6623	48.4438	40.7381	32.8893	25.0117	13.6926	6.738	0	0	0	0	0	0	0	0	0	0	0	0	0	0	0	0	0	0	0	0	0	0	0	0	0	0	0	0	0	0
372	168.4398	134.3775	113.4766	108.5183	101.3122	93.1774	86.1813	84.7988	89.5423	88.1245	87.1262	88.1259	86.9848	84.4503	77.5687	72.6664	58.9016	52.6389	44.8398	38.8815	30.7285	19.7158	10.5626	3.0978	0	0	0	0	0	0	0	0	0	0	0	0	0	0	0	0	0	0	0	0	0	0	0	0	0	0	0	0	0
374	190.3441	135.0811	123.2759	113.933	105.0791	103.76	96.4904	93.7406	90.12	93.506	91.6195	92.7186	91.4632	92.5866	82.7204	78.8643	64.0276	58.4427	52.5295	46.5767	36.3287	25.3562	13.6871	6.8297	0	0	0	0	0	0	0	0	0	0	0	0	0	0	0	0	0	0	0	0	0	0	0	0	0	0	0	0	0
376	191.1354	162.4281	145.6129	122.8178	116.6348	104.8371	100.0509	99.6382	98.8067	97.7989	100.7646	101.6556	99.0277	97.7166	91.5375	83.9814	74.5272	65.8944	60.008	52.22	41.7759	31.0554	17.5928	9.9669	1.5494	0	0	0	0	0	0	0	0	0	0	0	0	0	0	0	0	0	0	0	0	0	0	0	0	0	0	0	0
378	198.4192	170.0015	154.6195	132.5791	117.5376	117.8063	110.5188	103.1778	104.0832	104.5048	105.5208	109.8114	107.7424	106.6508	100.5415	92.5612	82.6598	73.1073	67.2537	57.6786	47.0546	36.5887	23.703	12.8471	6.2323	0	0	0	0	0	0	0	0	0	0	0	0	0	0	0	0	0	0	0	0	0	0	0	0	0	0	0	0
380	207.5523	184.4318	155.8138	147.3196	134.9674	123.7998	116.2999	109.8569	108.4073	111.1413	111.9648	114.3278	114.6062	115.0468	105.0522	101.6365	90.5502	80.131	72.4938	62.877	52.1957	41.9817	28.4254	17.4064	9.4875	0.7121	0	0	0	0	0	0	0	0	0	0	0	0	0	0	0	0	0	0	0	0	0	0	0	0	0	0	0
382	236.815	198.5606	174.5135	157.381	139.7546	130.4263	122.7184	120.0782	116.4036	117.0515	121.3366	122.4201	120.6019	121.5402	116.599	108.0869	98.8301	87.3628	77.942	68.1286	59.1096	47.4498	33.7455	21.4313	11.5909	5.4136	0	0	0	0	0	0	0	0	0	0	0	0	0	0	0	0	0	0	0	0	0	0	0	0	0	0	0
384	225.0197	208.9612	178.0355	161.5855	148.1265	142.3229	134.3686	125.3757	123.4341	124.1422	125.8663	128.1977	131.7932	130.0912	126.9411	116.8841	108.2343	94.6605	83.2988	73.2928	65.9133	52.8298	39.1538	28.4101	16.4658	9.1419	0	0	0	0	0	0	0	0	0	0	0	0	0	0	0	0	0	0	0	0	0	0	0	0	0	0	0
386	258.6458	224.1305	191.1116	174.1492	154.2152	147.7118	137.5283	131.6835	130.0818	132.265	132.7183	138.8949	140.9559	136.0977	131.4322	126.0905	115.0041	103.7471	88.8953	80.3144	72.1747	58.3387	44.6412	32.9026	20.4491	12.2497	4.274	0	0	0	0	0	0	0	0	0	0	0	0	0	0	0	0	0	0	0	0	0	0	0	0	0	0
388	278.3359	229.8878	199.833	179.5477	172.8782	152.0056	148.0826	139.1388	135.2533	136.9839	138.2271	143.7595	146.5531	146.6117	142.8707	132.6532	123.0992	109.8477	94.7982	87.6054	77.9745	64.1279	50.2709	37.9753	26.2124	17.1344	7.026	0	0	0	0	0	0	0	0	0	0	0	0	0	0	0	0	0	0	0	0	0	0	0	0	0	0
390	275.5112	252.2723	219.1375	202.2875	177.3068	167.077	156.0751	145.3389	142.5476	140.2591	145.5359	153.7763	154.8824	155.733	148.1897	143.0087	132.5092	121.0463	106.554	94.8943	83.7716	69.9144	55.8978	42.8143	32.4035	18.9131	11.0965	2.3522	0	0	0	0	0	0	0	0	0	0	0	0	0	0	0	0	0	0	0	0	0	0	0	0	0
392	297.3748	260.5494	228.6997	208.8382	184.5291	172.8095	161.4218	152.4036	152.9483	149.5027	152.1526	161.1821	162.5291	164.4677	162.0962	149.7134	139.5766	127.816	115.9092	101.5691	89.1183	75.2454	61.89	48.8803	35.3783	23.5844	13.3467	6.032	0	0	0	0	0	0	0	0	0	0	0	0	0	0	0	0	0	0	0	0	0	0	0	0	0
394	313.7733	281.2491	243.6935	217.2665	200.8756	182.0485	170.1462	159.3264	153.2731	154.1815	159.127	166.9592	170.3561	170.008	169.982	160.2938	148.9825	138.3195	124.2679	108.1533	95.1573	82.0089	68.6089	54.8672	43.4323	29.0406	17.8377	9.8109	0.1645	0	0	0	0	0	0	0	0	0	0	0	0	0	0	0	0	0	0	0	0	0	0	0	0
396	314.457	297.8489	253.3798	231.2432	213.3281	193.446	176.9264	163.3873	160.5155	162.8311	163.6376	175.7877	177.8089	180.8882	174.5829	170.569	160.9422	146.617	134.4562	116.8074	102.0337	88.82	75.5047	60.8692	46.6298	34.3298	21.9703	13.2263	4.1382	0	0	0	0	0	0	0	0	0	0	0	0	0	0	0	0	0	0	0	0	0	0	0	0
398	334.9772	303.3286	276.0447	235.903	225.6654	210.3509	187.5768	173.7255	170.2591	168.3692	172.2507	182.0565	190.2635	186.2623	184.8877	181.3481	169.5785	160.0063	141.2644	127.3232	109.0108	95.8652	82.4607	66.9156	52.8824	40.4313	26.9854	15.9042	8.2768	0	0	0	0	0	0	0	0	0	0	0	0	0	0	0	0	0	0	0	0	0	0	0	0
400	388.4625	312.6141	287.5514	252.2312	234.031	216.4587	193.0058	184.6861	179.8769	175.3209	177.8934	187.9737	194.9727	199.1628	197.9545	189.8799	181.0908	169.2469	152.4242	138.4565	115.9412	102.9401	88.567	73.142	59.0939	45.9315	33.1349	19.2792	12.609	3.1564	0	0	0	0	0	0	0	0	0	0	0	0	0	0	0	0	0	0	0	0	0	0	0
402	380.8218	348.5219	307.4741	263.0687	245.5506	220.993	203.9013	192.198	183.6905	184.0532	186.2245	194.5871	203.1624	207.1013	207.1679	197.2776	191.345	178.8878	160.956	146.4867	126.6519	109.7789	94.4694	79.6298	65.152	51.0294	37.9176	24.629	15.4145	7.0306	0	0	0	0	0	0	0	0	0	0	0	0	0	0	0	0	0	0	0	0	0	0	0
404	392.1181	344.2871	309.5112	273.9635	250.2558	233.6154	214.6867	200.8859	193.9263	187.7818	196.6799	202.4364	211.7605	215.6093	212.1648	210.4257	199.1911	189.0828	172.2936	156.8251	137.6411	116.5448	100.7559	86.0497	71.1468	56.4304	41.8782	28.9952	18.3164	10.5467	1.0222	0	0	0	0	0	0	0	0	0	0	0	0	0	0	0	0	0	0	0	0	0	0
406	403.0689	367.0799	330.5945	286.6301	263.1022	243.6471	218.069	199.8582	199.5413	197.6655	204.2217	214.8276	220.2434	225	226.627	224.8932	208.1467	199.5776	181.5029	165.4343	147.6682	123.469	107.3986	92.1587	77.0102	61.8901	46.9084	33.7255	21.4618	13.9761	4.1414	0	0	0	0	0	0	0	0	0	0	0	0	0	0	0	0	0	0	0	0	0	0
408	422.4161	395.5505	338.3885	310.7162	276.062	246.7728	230.6304	213.796	208.7121	204.3904	212.1737	215.5579	228.387	233.7444	234.3406	228.4601	220.6222	209.6865	191.0976	175.8312	154.9713	133.3754	114.2118	98.4117	82.5657	67.4403	52.728	38.3157	25.2547	16.6375	8.4577	0	0	0	0	0	0	0	0	0	0	0	0	0	0	0	0	0	0	0	0	0	0
410	432.2535	391.2946	355.4407	311.1071	291.875	257.8725	241.7784	217.5186	217.7454	207.857	216.2481	225.2205	236.1292	241.3159	240.4526	239.8377	230.4871	218.8718	204.3785	187.7373	168.0369	144.9168	121.0077	104.2182	88.1064	73.8991	58.1623	44.0124	30.6752	19.2397	11.8681	2.9446	0	0	0	0	0	0	0	0	0	0	0	0	0	0	0	0	0	0	0	0	0
412	475.4211	408.2417	371.352	325.3814	294.9326	274.9377	250.2917	233.0916	215.8606	216.6688	223.9735	230.6543	242.2864	247.6534	254.4683	249.6179	241.3039	230.0483	211.7592	195.2789	178.1259	155.5289	127.796	110.7427	95.4933	81.2697	63.5865	49.5084	35.2184	23.195	14.6939	6.9895	0	0	0	0	0	0	0	0	0	0	0	0	0	0	0	0	0	0	0	0	0
414	454.1318	420.4705	370.4767	331.8309	308.7832	280.1853	252.1371	237.9993	229.7537	221.2635	230.6485	240.8627	248.3161	253.5117	261.2138	255.2165	247.43	241.2947	224.0122	203.9105	185.9954	165.3621	140.8022	118.1905	102.8629	86.6539	68.9971	52.5293	38.9486	27.3317	17.9146	10.147	1.2346	0	0	0	0	0	0	0	0	0	0	0	0	0	0	0	0	0	0	0	0
416	480.6141	441.1061	382.9357	351.9564	313.1422	288.0476	264.9985	244.7727	228.4663	227.7285	231.525	243.4505	253.4114	262.762	269.2602	267.9375	255.7713	251.4342	234.675	217.5352	194.1601	173.7858	151.204	125.9075	110.4669	92.234	74.5634	56.9963	43.0346	31.2082	21.0552	12.7063	5.9494	0	0	0	0	0	0	0	0	0	0	0	0	0	0	0	0	0	0	0	0
418	481.1478	452.9341	387.5034	354.7133	328.9681	296.1884	270.4047	258.4482	239.8756	237.5402	239.776	250.4673	260.1308	271.3312	275.732	276.9383	269.8858	259.9304	241.8693	226.9273	204.9683	183.0191	160.6389	133.9462	116.3669	98.0478	80.7634	63.1114	48.4768	35.1114	23.667	16.5631	8.2628	0	0	0	0	0	0	0	0	0	0	0	0	0	0	0	0	0	0	0	0
420	523.0234	481.2584	416.5192	370.1007	338.7758	306.5698	276.6536	261.1014	247.7228	240.047	241.5914	253.1478	263.4901	273.7258	283.9084	285.1715	279.404	267.122	253.7826	236.3296	213.1558	190.8659	170.6979	142.0376	122.7483	104.7821	87.1306	69.266	55.144	40.1491	28.3326	18.0952	11.9731	3.2388	0	0	0	0	0	0	0	0	0	0	0	0	0	0	0	0	0	0	0
422	496.2109	470.5077	417.6048	371.648	350.6791	323.683	285.6483	265.1233	247.9374	250.8055	250.871	260.6566	273.173	284.165	288.2282	291.1926	290.5396	281.3268	262.6751	248.9523	227.3106	203.0065	178.3012	153.5606	129.6476	111.5874	92.9295	75.4783	58.2815	43.672	31.4014	21.607	14.9192	7.3476	0	0	0	0	0	0	0	0	0	0	0	0	0	0	0	0	0	0	0
424	522.4471	496.9522	429.1865	390.7874	358.9345	326.7503	289.6084	271.779	258.1072	255.3932	259.646	263.5833	274.8506	281.9093	293.6583	302.3265	295.675	292.3854	274.1401	256.5215	235.0186	212.3271	185.5167	161.9596	136.5939	117.8049	98.7676	81.7331	63.4741	47.4955	35.7134	24.2753	16.8943	9.3961	1.3683	0	0	0	0	0	0	0	0	0	0	0	0	0	0	0	0	0	0
426	545.9819	489.4033	440.0606	395.123	363.5829	327.999	308.1006	277.6705	263.2009	258.3672	257.887	273.4537	280.122	289.4593	299.9181	307.0293	304.4372	295.4472	281.6192	266.0257	242.6179	220.0107	193.4793	171.3898	143.8202	123.946	105.2772	87.4439	68.8129	51.8685	39.7921	27.425	19.5053	12.5023	4.6235	0	0	0	0	0	0	0	0	0	0	0	0	0	0	0	0	0	0
428	565.0093	512.8803	450.9363	413.9974	373.3294	342.5225	307.9569	278.7133	270.6319	263.1166	263.7151	277.0161	286.4211	299.696	305.9756	315.1568	313.4805	306.4268	291.5666	275.6338	252.7317	227.6339	201.4834	180.2001	152.1841	130.354	112.0289	91.8907	74.3224	58.2293	43.5382	31.7888	21.6779	15.1454	7.3138	0	0	0	0	0	0	0	0	0	0	0	0	0	0	0	0	0	0
430	555.6154	529.1941	472.94	432.1604	390.573	343.4924	320.6175	292.8546	273.0189	266.6254	274.8528	279.4604	295.223	306.848	313.7655	319.5546	320.8437	313.0715	299.6684	281.8389	264.7453	236.5206	214.9213	187.535	163.0055	136.8379	117.3866	96.3889	79.8997	62.7388	46.863	35.9076	26.0495	17.3915	10.4007	2.8549	0	0	0	0	0	0	0	0	0	0	0	0	0	0	0	0	0
432	554.7582	500.5004	463.2803	427.1367	386.8805	357.0916	325.6484	300.7812	279.8557	276.3454	275.4754	279.7815	292.4117	304.4615	318.5848	323.0435	325.589	319.0302	311.1486	293.3154	271.8788	245.402	219.0822	192.6037	170.2812	143.2401	121.9296	102.0239	85.1183	67.2289	50.9371	38.7912	28.2044	19.1754	13.9391	6.2336	0	0.0786	0.0919	0	0	0	0	0	0	0	0	0	0	0	0	0	0
434	571.2598	521.919	487.1405	441.5134	400.5366	363.1639	325.5234	298.9099	288.6864	273.7714	277.8909	284.9545	296.7543	312.8996	321.4008	331.316	333.1652	328.268	314.6824	303.3466	280.4571	253.6666	225.4212	197.922	178.7639	151.5651	126.5156	107.7155	89.7208	71.7644	54.4787	40.4165	31.7951	22.8463	16.4161	9.9485	1.4067	0.2371	0.1847	0	0	0	0	0	0	0	0	0	0	0	0	0	0
436	556.5593	531.4138	485.9696	446.7722	412.065	361.4292	331.3781	307.5104	287.3665	280.0627	280.5313	290.4614	300.8587	312.6833	326.7228	332.4553	337.3889	329.9987	324.5012	310.4786	288.4799	263.5348	232.4753	208.9425	184.9044	161.1075	131.3135	112.9364	94.4897	76.4433	58.057	45.0948	34.9213	25.1438	17.819	12.871	4.8158	0.3978	0.2789	0	0	0	0	0	0	0	0	0	0	0	0	0	0
438	588.2918	533.5447	500.4328	450.3494	407.6994	383.3893	344.7613	313.3141	300.5637	284.1268	283.3633	291.5921	304.5678	314.7878	330.2825	338.7384	340.8301	341.6728	333.5295	316.2289	292.4706	269.0382	243.6852	215.4872	190.8263	166.0497	136.3388	117.8044	98.9911	80.6021	62.158	49.6787	39.1888	28.4597	21.172	14.3105	7.3312	0.5611	0.1873	0	0	0	0	0	0	0	0	0	0	0	0	0	0
440	610.5329	553.8359	519.59	458.6522	423.9627	384.6467	350.574	318.329	300.9581	286.5913	288.1177	292.6494	308.1545	322.6436	332.6971	345.2747	347.0241	348.517	341.0743	321.0087	304.2702	276.793	247.6848	220.1823	197.6097	175.0395	147.4551	122.0554	103.0982	84.1713	66.3166	54.2441	41.5743	32.5474	23.0871	17.1427	10.3728	2.9955	0.0944	0	0	0	0	0	0	0	0	0	0	0	0	0	0
442	604.5437	556.0904	510.1403	454.8232	424.1289	388.3876	352.5249	322.7706	303.2385	290.1064	288.2927	294.2539	307.0048	320.7752	335.916	348.9326	348.494	353.9568	344.386	331.3363	308.1402	283.7116	253.8946	227.8452	202.4444	177.5457	151.1928	126.2616	107.1751	86.8782	70.4783	55.0526	44.811	35.2444	26.3929	18.6818	13.0518	6.7975	0	0.1985	0.2297	0	0	0	0	0	0	0	0	0	0	0	0
444	580.8558	555.074	511.2525	472.112	431.6466	392.1707	351.1763	327.472	306.6994	293.6144	288.6213	298.8757	307.0973	322.8798	339.4517	348.179	352.1551	353.3729	351.2956	335.2213	313.6807	288.8479	259.9235	235.7657	208.5696	185.3831	157.6401	130.5153	110.4576	89.6146	74.6919	58.9258	48.0208	38.7098	28.8183	20.9865	15.4492	9.1754	2.3296	0.5995	0.4625	0	0	0	0	0	0	0	0	0	0	0	0
446	585.1624	557.5803	512.5424	470.7182	442.7182	400.9017	368.549	331.4337	308.3619	299.0213	293.3942	293.7913	309.8271	326.2029	336.413	350.8061	356.0256	359.1597	350.5504	340.9167	319.5346	294.1391	265.266	237.793	214.169	190.804	165.8268	134.9039	113.4252	94.0214	78.481	62.8882	52.9017	41.7178	32.2498	23.4663	17.2649	12.5845	5.5275	1.0066	0.6989	0	0	0	0	0	0	0	0	0	0	0	0
448	608.6725	566.8906	538.2379	474.959	439.6665	400.0214	364.9958	331.9839	311.6763	300.5474	292.5054	306.0655	311.0146	323.7765	341.2003	351.5988	358.4735	362.055	355.1139	344.7774	326.1608	301.2185	274.6046	242.9331	215.5003	197.5447	169.2669	141.7047	116.5	98.5482	81.3078	66.9466	54.688	44.8251	35.8381	26.5504	19.5115	15.1918	7.9616	1.4204	0.4696	0	0	0	0	0	0	0	0	0	0	0	0
450	615.9352	566.2263	523.2096	494.2052	444.6797	409.9984	369.4416	334.248	324.0595	304.9024	300.6334	302.2149	317.522	324.6874	336.7998	353.7961	359.3715	364.2534	357.7639	343.1338	329.0054	302.8417	274.6305	246.0207	222.343	200.0598	172.4053	145.8808	119.6099	102.0697	84.1703	71.0629	58.2383	47.7119	38.6971	28.9342	21.6034	17.0467	11.4939	4.8308	0.2367	0	0	0	0	0	0	0	0	0	0	0	0
452	611.1351	581.8789	527.0567	478.3002	455.6708	413.8618	378.8301	336.9499	317.7243	304.0875	300.0374	306.0215	315.9667	328.1687	341.349	354.7954	359.2801	368.4562	365.214	349.831	334.2931	309.4839	281.8294	252.4411	226.4202	204.6674	180.3813	153.2728	122.8118	105.1455	88.4932	75.1017	61.8672	51.4121	41.4508	32.5095	24.8104	17.9274	13.1512	6.7691	0	0.3215	0.3773	0	0	0	0	0	0	0	0	0	0
454	608.098	565.8818	528.3174	489.8304	445.8496	415.4342	378.4425	350.0977	321.25	305.2554	298.3337	302.3391	314.1505	327.1456	337.7102	353.0774	364.6299	366.0575	362.1745	349.8898	331.3467	311.1848	284.0024	255.591	229.3326	207.4395	180.0211	157.1689	130.2213	108.259	92.8778	78.8554	65.5493	53.9346	43.6215	35.7611	25.9751	20.7421	15.714	9.2573	5.0501	0.9725	0.7607	0	0	0	0	0	0	0	0	0	0
456	602.6611	565.4908	514.2069	484.0271	462.4594	407.5166	384.4619	344.1282	321.8009	304.5482	303.5394	307.1887	309.8467	327.0586	337.6092	353.7996	363.1686	367.7849	364.8949	353.3358	337.39	313.7947	285.3452	259.2326	234.5527	213.1708	185.4647	160.9256	133.0503	111.5822	97.1265	82.7889	69.3912	55.141	47.0267	37.9262	29.293	21.999	17.3479	12.1532	5.5424	1.6366	1.1522	0	0	0	0	0	0	0	0	0	0
458	595.9577	571.6079	537.0259	489.1837	450.8346	423.9342	379.9778	341.8979	326.542	311.6034	302.2891	306.7433	313.9006	324.5918	342.2015	352.5613	361.6289	367.0577	362.9359	353.9845	341.6428	314.914	286.4684	261.6179	237.6085	213.5715	186.486	164.4896	137.8016	115.1259	100.7817	85.6415	71.4716	57.8798	50.6874	40.6355	32.5257	25.1504	18.7677	13.8014	7.9551	2.3169	0.7767	0	0	0	0	0	0	0	0	0	0
460	594.039	564.4854	522.9091	480.9468	446.3201	416.7587	382.6332	356.0383	334.0281	310.1253	301.1293	304.3554	315.4128	324.1906	335.1199	346.6579	366.4728	364.7615	365.8346	356.4648	340.9471	319.4197	295.2767	264.2704	243.0367	218.3302	193.7431	167.6796	142.1844	120.205	102.5574	87.2477	72.9666	60.6662	52.1235	42.6405	34.6759	26.9438	20.393	15.9705	10.7276	5.0673	0.3926	0	0	0	0	0	0	0	0	0	0
462	604.9509	574.886	525.0281	494.7629	447.0692	424.4663	386.2588	355.9705	331.9535	311.486	307.4172	306.3026	315.0986	324.0624	334.6839	349.3579	357.8013	367.7774	366.8721	354.6031	340.368	318.8842	294.0286	267.3593	242.871	220.5064	196.5725	169.2997	144.5325	123.3174	104.4625	88.9664	74.6358	63.5697	53.9856	45.9806	36.4188	29.3075	23.1809	17.7749	13.2575	7.8774	0	0.3118	0.3673	0	0	0	0	0	0	0	0
464	596.1614	555.26	520.6532	498.116	454.2489	414.8638	386.5619	346.2737	332.6172	312.5361	313.0257	302.7276	312.6334	324.7521	334.6222	350.9172	359.3571	365.6456	365.6311	357.2274	344.1026	324.0807	292.1398	265.8201	244.9861	223.1986	198.2248	172.3106	149.0092	127.3298	106.3838	90.7782	76.324	66.5256	56.0253	48.8572	38.6999	31.8712	24.7929	19.9748	15.1321	9.6092	4.3647	0.9465	0.7433	0	0	0	0	0	0	0	0
466	585.0787	578.7927	535.8479	497.1915	454.9054	422.3877	392.2195	355.5083	335.3448	316.0064	303.9111	306.4343	314.8863	316.8257	334.5808	346.9517	359.9424	364.3423	361.0098	355.8374	343.9097	320.5092	293.5923	269.3783	245.8497	227.1659	202.2223	175.9606	150.4136	131.064	108.3547	92.6753	79.4647	68.7828	58.116	51.4936	41.6886	34.3056	27.2695	21.355	15.5925	11.8015	6.319	1.5966	1.1283	0.223	0	0	0	0	0	0	0
468	573.7502	560.0635	523.0669	488.6159	459.4044	418.2617	385.0385	355.7534	334.2081	312.9838	303.0008	306.9289	307.1867	318.8769	326.5255	344.0598	354.2619	359.6298	363.3334	353.4431	340.8901	318.9812	296.8739	272.1895	246.2426	228.873	204.8576	177.0597	153.1612	132.8413	112.2512	94.6206	82.6842	69.5324	60.2592	52.3262	42.873	36.0833	29.5094	23.2946	18.7121	14.3893	9.0232	2.2626	1.2843	0.4515	0	0	0	0	0	0	0
470	561.9871	567.0304	526.3942	489.5518	464.5295	429.6799	389.3751	357.9361	328.2844	315.2347	308.1751	308.0989	313.6285	316.6962	328.8212	341.1548	352.455	357.4947	355.9417	352.1524	339.278	320.2508	293.6053	271.1979	248.9343	228.934	204.1566	181.2399	155.2091	135.8604	116.3596	96.5858	84.3807	70.2799	62.4373	53.692	46.5011	37.673	31.6008	24.5863	19.0714	15.7166	11.3939	6.2471	1.4437	0.6854	0	0	0	0	0	0	0
472	551.1335	532.5092	521.9183	480.9373	458.5065	420.6601	388.9576	361.5874	336.404	306.4438	301.014	305.4403	309.0594	306.9209	327.5276	342.1539	346.3311	352.312	353.8276	347.2993	337.3829	316.5158	295.5633	271.5258	248.2094	227.7033	204.8302	181.0332	157.8218	136.7335	118.0648	98.8053	85.4983	72.7487	64.56	55.206	49.1809	39.5559	33.3039	26.8024	21.2563	17.5915	13.4113	8.962	1.6104	1.383	0.8149	0	0	0	0	0	0
474	539.7549	532.0164	500.3657	489.1582	447.6345	418.3413	385.323	353.0745	330.9656	312.9347	306.8397	303.9376	303.8694	310.275	320.0144	336.4221	343.8115	346.0152	349.8049	344.2533	334.1231	317.8975	292.2431	268.5714	247.832	230.3292	206.2442	180.4868	158.8917	140.6422	120.5608	99.7226	86.6133	75.2594	66.2233	56.7412	49.5852	41.6441	36.1077	29.2913	22.6395	19.2964	15.0927	10.8809	5.5817	2.5625	1.6529	0	0	0	0	0	0
476	527.3586	522.8837	503.5304	470.4787	456.6287	415.1359	377.8304	347.9913	328.2704	313.5544	302.3321	301.1784	304.8329	309.0573	319.4662	330.9019	338.9562	344.9975	344.9199	341.9991	331.8299	312.986	292.722	267.8701	248.2454	227.9788	207.9067	181.1113	158.4937	140.5594	120.9176	102.3376	87.6456	77.2433	67.8457	58.2444	48.376	44.9169	36.7487	30.8277	24.1823	20.8374	16.3693	12.5875	8.3712	3.7709	2.5116	0.4429	0	0	0	0	0
478	514.0024	512.8705	514.6484	460.0073	436.9077	414.7791	392.052	353.713	331.782	311.7893	299.2326	297.7563	299.6779	303.4136	317.0919	326.8235	337.1113	340.6422	343.5407	337.139	328.0128	309.7741	289.3092	267.1961	247.7544	229.8206	208.993	184.8547	161.2276	139.5094	124.1722	104.4479	88.5955	78.8092	69.1816	59.3459	50.1442	46.3723	39.5738	32.1443	26.434	21.2436	18.4467	14.8192	10.0048	5.0051	2.7348	0.8964	0	0	0	0	0
480	500.2016	502.4835	500.1652	466.9498	443.1286	410.3527	377.9195	353.4637	330.2922	310.2805	304.0367	298.914	295.0615	300.8074	307.6107	319.945	327.1448	338.263	340.3613	335.0525	324.0714	311.7252	286.7721	263.7559	245.8419	229.3227	209.4308	185.484	161.5863	141.9868	127.0598	107.6522	90.9089	80.0233	70.2836	60.2932	51.9408	46.6235	41.4437	32.9596	27.7902	22.9231	20.3122	16.0791	11.9752	7.5769	2.9625	1.3604	0	0	0	0	0
482	484.9296	490.6822	499.0797	459.834	435.3137	404.1227	376.0347	349.4127	327.9604	303.3882	292.6454	294.4122	292.1793	295.6858	303.6164	315.1152	328.451	330.4786	332.4277	331.8857	318.8422	302.6453	284.1477	260.9317	245.6299	226.4143	210.4713	184.9157	163.6477	142.9818	126.3773	107.5278	94.7919	81.0761	71.2447	61.0396	53.6545	47.2861	43.2864	35.3523	29.5355	24.6392	20.6399	17.351	13.2931	8.6933	3.1883	1.9313	0.6487	0	0	0	0
484	469.3038	478.5813	489.0136	455.5427	430.6843	404.9228	369.5761	345.2155	328.4221	300.781	297.3314	288.1912	294.9719	287.4337	296.7495	311.5149	320.5263	324.1944	331.5361	325.1873	313.6688	299.6914	281.1991	259.8604	245.3963	227.1333	206.1281	184.7535	163.4334	142.408	125.273	109.3899	95.8584	82.1344	72.1306	61.7893	55.3915	48.129	43.7912	36.9064	31.9768	26.2504	21.6702	18.8978	14.5072	11.357	6.472	2.6137	1.3097	0	0	0	0
486	453.2352	466.0891	474.9322	449.1058	425.1276	401.7225	381.3937	341.2214	319.1974	304.4938	289.6894	288.2751	286.0175	288.5525	300.5961	306.7318	315.4468	317.8614	322.4105	320.9665	308.2742	294.8528	276.2991	258.0604	242.4505	225.3656	206.5606	184.9696	163.4595	144.5113	126.9026	110.5531	98.5492	83.1819	72.9656	63.5929	56.6135	48.9698	44.5513	38.7567	32.7317	27.2007	22.6019	20.1574	16.9653	13.025	7.7552	3.308	1.9826	0.1545	0	0	0
488	436.7383	453.2171	460.4434	449.9941	425.3292	405.0896	368.829	336.4523	322.6013	305.4689	297.1382	286.4607	284.0991	289.8443	293.6662	302.26	314.5585	314.0417	315.4009	312.471	307.3338	291.7769	273.5349	256.6463	237.1091	223.5514	205.4775	184.8427	162.9451	146.2315	126.9588	111.0927	100.0188	86.3036	73.7893	65.4066	56.7739	49.8082	44.8022	40.7325	33.9497	28.1033	23.2633	21.6401	17.9924	14.4673	9.6166	4.0137	1.696	0.3117	0	0	0
490	419.9096	440.0629	445.6476	436.9073	422.2149	390.9901	362.272	346.1941	315.7912	292.3983	285.8818	284.0271	280.9397	279.7784	283.7523	294.7345	305.0162	313.7389	313.5301	309.6806	301.4808	286.705	270.8521	254.6889	238.8627	223.399	204.9204	184.0717	162.5359	144.4987	129.3085	112.803	98.9367	87.415	74.6162	66.1732	56.9281	50.6539	44.1735	41.1778	34.9756	30.2732	25.1419	22.032	19.2156	15.0961	11.5074	7.2768	1.4041	0.4716	0	0	0
492	403.1412	425.3324	430.964	434.488	422.7711	387.2718	362.0561	339.5093	312.8116	297.4075	277.3695	279.7304	279.0083	279.0224	283.9265	294.1183	299.7401	304.9651	307.6248	304.9824	295.5072	284.1563	268.6019	251.5767	237.2706	218.6245	205.3609	184.5792	162.1085	145.7638	128.3023	111.3307	100.1657	88.0363	75.518	66.4668	57.889	51.5555	45.3201	41.7439	37.1927	31.6916	25.9469	22.0824	19.8537	16.9538	13.11	7.6855	1.1078	0.9754	0.5822	0	0
494	386.0038	408.5403	415.9391	435.4533	411.0214	385.8885	364.7791	333.2729	314.4433	293.439	283.6739	277.5461	278.4223	272.705	278.1162	284.566	289.6673	301.4741	298.3355	298.1219	293.3936	279.4808	262.1173	246.7999	233.9822	219.5122	201.5574	180.5142	162.9571	144.2389	129.4787	112.0933	101.8804	88.6273	76.602	66.7537	58.8578	52.2909	46.4806	42.8927	38.1715	31.2162	28.6764	23.0838	20.4347	18.1946	13.6602	9.6617	5.4609	1.8326	1.1756	0	0
496	368.3862	391.262	409.1755	419.1615	400.2607	369.7116	354.4623	329.865	315.4964	291.0658	279.2044	272.4215	270.7041	268.6807	276.5145	284.9271	283.6127	292.7205	293.1468	293.3085	285.9918	275.884	259.9116	245.4935	231.1586	218.1175	200.0773	181.1666	158.5845	144.9625	130.6908	112.286	101.1177	89.0758	78.6067	67.0136	59.7291	52.9271	47.6405	42.5855	39.1493	32.8925	29.9634	24.7249	21.5844	19.0286	15.1179	11.4973	6.2234	2.7052	1.7797	0.1773	0
498	350.3104	375.3416	394.3011	402.406	394.894	369.0469	345.9417	330.3243	308.4014	286.8929	280.7063	271.8001	261.7098	264.4704	268.0166	276.4709	278.238	285.9845	288.3703	286.2938	278.2493	270.7804	256.0464	240.9222	229.115	213.7277	196.1123	178.6989	159.235	144.6693	128.5685	112.0084	100.1385	90.4493	79.4562	67.2468	60.4117	53.5502	48.7994	42.7042	40.1381	34.3865	29.7352	25.4694	20.8658	19.9356	17.1515	12.5551	8.0683	3.5923	1.614	0.3578	0
500	324.2818	358.3666	379.1281	385.3242	382.5477	364.3559	346.6737	319.2175	303.0644	281.9051	269.6307	269.3576	257.3944	263.2273	263.3566	268.7461	275.8706	279.2601	283.5482	278.4821	275.5918	266.314	253.9682	239.8911	223.6319	209.6665	197.9297	175.4514	158.1087	141.8789	126.0598	112.8201	101.3751	91.0882	80.5866	69.8622	61.097	54.763	49.4326	42.8184	39.3023	35.4114	31.6931	26.5477	21.9249	19.913	17.2124	12.9969	9.1761	6.3121	1.4452	0.5413	0
502	351.9488	340.9696	361.6736	367.806	372.1564	365.3695	340.8565	317.8698	295.6607	276.6006	265.9737	260.0628	254.727	254.7641	258.1989	262.109	269.5057	267.8256	271.6057	274.4751	268.0679	256.7052	243.1579	232.6558	222.2837	211.1213	191.7994	175.7046	156.2909	140.3805	125.9629	112.7484	101.8634	91.2079	80.979	71.6241	61.7668	55.9719	48.9682	42.9154	40.539	35.8711	31.9942	28.5297	21.8189	20.2576	17.461	14.3335	10.7535	7.3144	1.2729	1.0706	0.9725
504	345.6463	323.268	342.0253	349.978	352.7301	353.2694	338.2294	314.9476	290.8363	276.5148	257.3521	253.0259	252.4218	248.8012	257.1593	260.451	261.7778	263.669	265.7298	265.3002	262.5276	252.8104	237.5186	225.2883	216.4786	203.5726	191.5551	173.6175	156.5214	140.8638	123.2344	110.064	100.4462	90.6501	81.1853	71.8773	62.4392	56.0992	48.4893	43.008	37.5261	37.1777	33.2602	29.0644	24.8363	19.3116	18.1816	15.4466	11.2398	8.1363	3.9449	1.9542	1.9613
506	339.2374	305.6276	322.4312	332.7652	340.053	343.2276	322.4108	307.6187	286.1941	272.0276	259.9986	250.2126	242.2811	241.7862	243.8663	249.436	256.5884	256.4024	257.6477	258.3753	254.4803	245.2613	233.8276	222.8054	210.2675	202.3477	186.1283	168.1278	151.0611	138.5828	123.025	110.4291	99.1081	91.6271	80.5447	72.0475	63.1885	55.7348	48.6781	43.1469	37.9683	36.7865	33.5539	29.0003	24.9801	20.0225	18.1672	15.5343	13.0034	9.0513	5.9559	2.8556	2.9697
508	301.2692	287.9752	307.7675	319.6693	327.4813	333.1902	315.7526	294.0785	286.501	261.1095	251.9419	249.3009	240.5292	237.1212	240.798	245.3809	248.5585	252.1605	251.6573	254.2205	247.944	242.0146	228.8587	216.3138	207.3244	199.4093	186.8437	168.1838	150.9606	133.8182	122.1327	109.193	99.1932	90.2206	81.735	72.142	62.0986	55.4182	48.9188	43.3019	38.4568	37.7279	33.52	30.7427	26.8687	21.7445	17.7277	17.3289	13.5088	10.628	6.9595	3.7779	4.0013
510	295.2626	275.9636	292.8113	306.2477	314.5917	328.3537	312.2785	295.0861	277.2372	255.0109	252.0523	243.4896	237.5412	230.7601	234.8135	238.6721	242.1561	243.7813	247.059	248.7178	241.3983	236.8853	224.1138	215.2245	207.7824	194.1759	181.1128	163.9314	147.7497	133.7818	121.1578	106.9466	97.5899	89.4046	79.3123	71.9921	62.6545	55.083	49.1391	43.4359	38.9472	35.1433	34.6073	31.1732	27.4851	22.6717	17.1704	16.9409	14.6927	11.2224	8.4287	4.7829	5.0538
512	289.0344	269.5329	277.4719	292.0301	301.3467	307.1435	301.9522	280.6522	272.0287	250.9157	246.0199	236.3538	231.1836	227.1783	226.9367	229.2388	234.7094	234.5301	239.5666	239.8833	234.7628	227.2263	217.8716	209.0501	200.1789	189.6861	176.3689	162.886	144.9822	130.9002	120.7705	105.8981	96.0067	87.1869	77.7674	70.5342	61.7537	54.7219	49.3172	43.5582	39.4345	35.4099	35.4313	31.0811	27.7464	23.3072	17.8856	14.7597	14.7718	12.3393	8.4386	6.1404	6.1264
514	282.6246	288.0332	261.7908	277.0489	287.7908	298.3028	301.2807	281.6824	264.5539	247.9002	237.3573	228.4308	225.6747	221.6941	222.5935	223.654	224.8226	232.8565	232.0556	233.3873	232.1279	223.978	214.9525	203.5388	194.7557	187.1097	171.0011	157.4317	141.0809	132.102	117.5133	104.0102	94.4784	85.8226	78.2642	71.0868	64.1025	56.7969	49.4889	44.0897	39.6185	35.6747	35.2164	31.4075	28.2899	24.9062	19.2542	14.8107	14.0168	12.2521	10.3766	6.8694	6.8537
516	276.2478	283.859	245.9601	261.9393	284.8006	287.0945	292.0877	277.4915	254.5052	238.8451	231.6788	226.8456	221.3503	215.1009	214.4107	222.0817	220.4288	225.2577	225.5825	227.7238	224.0636	215.8828	205.9841	198.5824	191.1955	181.699	174.4395	154.9181	141.5351	126.1528	115.3609	102.8013	92.3531	85.3556	76.6707	70.1568	63.474	55.718	49.6921	44.6573	39.2121	35.9652	34.2481	32.1457	27.8887	25.5784	19.2986	14.5815	13.9572	13.0464	10.6901	7.9368	7.9187
518	269.8824	249.1842	229.9381	265.8723	271.2341	275.806	286.9009	267.3201	246.5942	236.0469	225.9623	224.7862	212.2265	214.5067	210.3904	214.2722	211.5541	216.9223	219.187	215.4172	217.0294	209.8464	203.8863	193.6822	185.2718	177.8168	166.7945	154.4877	137.8276	124.1126	113.6691	100.9554	91.4556	83.1749	76.5546	69.0596	61.7105	56.3604	49.9262	44.6321	38.8176	36.2812	34.017	32.2517	29.3126	25.6841	21.2901	14.9911	12.4314	13.1336	11.2922	8.6154	8.5958
520	263.3071	182.6888	241.8584	250.5185	257.31	264.2041	275.5558	262.1469	246.7016	233.8324	221.4178	213.2048	208.433	205.7594	205.1149	207.9795	211.9549	209.5638	213.5139	213.4461	211.1601	202.8858	196.7278	189.6435	183.1554	175.7382	162.1706	151.0489	134.9768	123.8194	111.3273	100.6547	90.163	84.7841	75.3375	68.4711	62.3834	56.8939	50.1529	44.2768	39.1599	36.5952	33.6562	32.3256	29.4967	25.5763	22.0822	14.3184	11.0314	12.5245	10.7669	10.0429	10.0201
522	256.5058	182.5168	245.0923	234.7675	243.5483	252.273	264.1231	248.2588	236.8715	225.2275	215.1267	210.1898	205.2994	199.5266	201.4803	201.4895	202.2147	205.5838	206.1654	206.74	201.0997	198.5862	191.5601	183.2758	177.2871	169.8385	159.1555	146.6276	132.2401	122.1937	108.9234	98.1793	89.4781	82.5447	76.2889	68.0937	60.9561	55.7424	49.2556	43.8997	39.4976	36.3465	33.2768	31.3737	28.8879	25.4113	23.0671	16.527	9.5173	12.5069	11.8106	9.8468	9.8244
524	249.4969	182.2965	251.5128	218.6394	229.9843	240.0329	252.8177	247.3879	235.2145	217.4529	211.7562	206.8994	197.9032	195.114	194.5882	194.9542	198.0914	199.5515	199.4767	199.9318	196.7598	190.5605	186.1462	178.1826	174.6693	166.6287	158.0479	145.2619	131.5231	121.5126	106.6927	95.831	88.4269	80.8767	72.7289	66.9368	60.5068	55.1898	49.6937	43.5037	39.5505	35.8014	32.881	30.2642	28.8425	25.8661	23.5333	18.9325	9.5548	10.8226	11.2868	10.321	10.2974
526	242.4459	182.1517	241.5274	202.2735	216.237	234.6545	241.5785	242.8867	233.6288	214.8112	204.5846	205.5152	192.4778	186.3146	188.7495	191.3512	190.5086	195.3124	190.4987	194.1057	192.214	187.8327	178.9375	173.2583	170.4326	162.4121	151.5201	140.7587	125.6594	116.9685	103.4354	95.9663	87.4602	80.5058	72.4568	66.6521	59.7187	54.2407	49.8348	43.1178	39.0498	35.2598	32.4907	29.921	28.597	25.7319	22.6621	19.3134	11.429	8.5784	12.0478	10.166	10.1428
528	235.3329	182.0777	224.9716	185.633	217.6271	223.368	230.1866	231.889	219.1822	201.8661	201.5216	196.2747	190.2452	182.1887	181.878	187.3308	186.9815	188.5572	188.1242	192.3066	188.2343	185.2019	175.3135	169.2372	164.9905	159.0392	150.2374	137.9265	126.2841	114.5466	104.4721	91.8282	85.9065	78.787	70.9561	64.8525	59.1486	54.9607	48.9087	41.7842	38.5532	34.911	32.0302	29.5818	28.4254	26.342	23.1433	19.3076	12.796	6.8929	10.8244	10.9222	10.8973
530	227.9864	181.9495	177.6151	194.8974	204.7775	211.7597	218.4688	223.1381	209.4299	200.8015	194.7979	191.3351	182.9322	175.809	181.6923	182.2871	178.5592	183.536	182.4135	183.4102	182.438	173.889	175.1353	165.5873	159.2269	151.9595	144.8286	134.2037	122.029	112.847	101.8925	92.366	84.0403	78.2567	69.8105	62.5319	58.3444	54.4903	48.1291	44.0269	38.0336	34.5439	31.3996	29.226	27.9148	26.7391	23.0272	20.2192	15.1095	5.789	8.28	11.2551	11.2295
532	220.4403	181.7942	110.5358	195.0873	191.612	199.3386	206.4576	219.0311	204.3056	194.6688	193.4301	184.1799	179.0801	176.5167	173.7588	175.7742	173.7412	178.8311	179.2663	178.7115	174.6189	170.5316	164.3335	162.1622	158.1217	150.9007	141.3683	131.2922	120.6216	108.0791	100.3728	89.562	81.7883	74.4665	68.4363	63.0066	57.2465	53.5963	47.7897	42.5249	37.4965	34.0126	30.7498	28.8579	26.8928	25.5637	23.6505	20.0758	15.9243	7.5304	6.682	10.136	10.1129
534	212.6588	181.5839	125.1569	196.1925	178.0988	186.0558	194.1185	210.7843	196.9547	202.6209	187.6076	183.7603	173.9146	169.3426	168.0587	165.6055	172.2533	171.7876	172.32	171.2842	170.5082	165.8608	162.1908	158.276	153.0212	146.5274	139.8011	127.7186	117.5344	107.882	97.6764	87.4799	80.1512	72.8917	68.1857	62.5507	55.7126	50.3156	47.1102	42.2047	36.9361	33.3828	30.3946	28.473	26.448	24.8864	22.8372	20.0349	17.5155	10.1192	2.9327	8.6518	8.6321
536	204.7482	181.4122	140.1833	193.727	164.324	172.5186	188.6764	199.8151	198.011	186.6421	179.0512	173.6675	172.4284	165.8917	164.1269	161.5564	162.4161	163.2822	168.6272	166.9707	165.5017	161.5133	157.1357	150.9121	148.3828	139.7401	133.2177	127.0844	112.3391	101.8122	93.8288	84.9359	79.5838	73.3135	64.7354	59.1338	55.5116	51.8142	46.9217	42.0014	36.7004	32.7459	30.0383	28.0679	25.9989	24.675	23.6437	20.0794	17.0169	12.7295	2.6213	6.5371	6.5222
538	196.6928	151.9847	155.6378	190.2848	150.2645	169.9842	178.3549	188.6306	193.6938	181.7704	174.6477	169.8617	166.9829	159.2197	156.5333	160.8288	161.1272	159.1887	161.7662	162.9584	161.4541	154.4123	149.3822	149.8326	143.6429	139.9886	132.5183	121.0285	110.781	100.2047	92.5148	83.7908	76.6337	70.538	64.5534	59.6759	55.3951	49.7607	46.8293	41.5373	37.3764	32.1002	29.6706	27.6498	25.5443	23.3405	22.9043	20.5948	17.8582	13.2909	3.334	2.6692	2.6632
540	188.3819	168.9962	171.4569	173.0519	150.9814	158.513	167.7318	177.1218	188.7588	177.0045	174.5038	163.2206	157.6845	159.1603	153.4668	159.0043	152.0822	156.5835	158.734	154.6424	154.0833	154.3555	147.1944	140.6566	137.3871	134.762	127.4579	118.3308	106.9906	99.2715	88.8214	82.318	74.9844	69.7323	62.8382	59.6198	52.8027	48.9067	44.3837	40.0943	35.4668	31.4286	29.2666	27.2127	25.0704	22.8999	22.9723	20.3894	17.966	14.8409	7.0032	0	0
542	180.2392	160.8088	140.3378	122.6636	159.4551	147.0693	156.4875	165.6783	181.1993	176.8357	163.3279	158.566	159.6138	148.2832	153.6858	149.2029	150.0105	154.5111	154.4226	151.8509	151.1889	150.0357	143.5654	141.1993	135.5557	131.3774	124.5795	117.4233	104.8585	95.5628	89.5544	82.2771	72.9691	67.7321	62.3018	58.7721	52.7972	48.2093	45.0178	40.9592	36.3319	31.0446	28.9111	26.8155	24.6875	22.4939	21.2712	20.2148	16.7452	15.21	10.168	0	0
544	215.1178	156.4738	102.6925	57.1617	163.5525	135.2454	144.1662	153.8469	173.462	168.5365	158.5679	154.4795	153.9167	147.0239	143.8071	146.2033	146.9169	146.2032	146.874	149.0858	147.6577	143.0312	141.587	133.2485	133.2335	128.6506	120.8334	114.3084	102.1079	96.5284	87.3926	79.2347	74.6031	66.9863	62.8687	56.5569	50.4839	47.1296	44.2741	39.7701	36.1058	32.7362	28.5331	26.3956	24.3904	22.0666	20.6972	19.9219	16.9098	15.0257	12.0492	0.8936	0.8915
546	242.4982	173.4398	110.4255	76.7492	152.0127	122.9752	131.3771	149.9094	163.1305	166.4735	155.509	153.2245	146.6554	139.5042	142.7068	142.0365	140.2511	142.2398	143.3569	145.0279	141.2046	138.1281	136.9001	134.0361	126.8187	124.7544	119.8843	110.4215	100.3373	92.8918	85.2093	76.3346	71.4017	65.615	59.3133	55.375	50.6287	47.0534	42.2132	39.1915	36.1972	31.7961	28.1173	26.0465	24.0618	21.6064	19.273	20.0184	17.4807	15.5179	12.8938	4.1378	4.1283
548	217.0789	174.7374	110.9846	96.8313	144.9364	110.2834	131.2647	140.1007	152.3873	159.3239	151.2992	148.0896	146.1434	140.2946	137.7449	141.9401	136.5495	138.4566	138.1757	140.6245	137.7272	136.3001	131.7264	129.6895	124.7934	122.1304	117.1709	108.2182	97.0698	89.5342	82.8915	74.1943	70.0304	63.1913	58.2416	53.078	49.2768	45.7603	41.9269	37.6645	33.5734	31.2897	27.6651	25.7191	23.6067	21.1143	18.9495	19.3687	17.2639	15.9989	13.9183	6.8494	6.8338
550	235.4252	176.0111	122.4864	117.4429	154.5138	114.5186	120.7567	130.0046	141.3307	152.6368	148.9406	141.7873	136.032	134.3243	132.6322	131.5696	132.3254	136.2573	134.215	135.0343	132.0875	129.2564	128.148	124.6326	122.8203	117.2384	111.7979	104.5925	95.4661	87.238	79.5963	71.2325	66.3614	61.7378	56.72	52.9562	47.1102	44.4781	41.1364	36.5286	33.9462	31.2572	27.7588	25.375	23.1323	20.5254	18.6116	17.6144	17.5028	14.7193	12.6071	10.1353	10.1122
552	216.8953	177.7629	145.7966	138.9798	132.8452	123.6495	110.2663	119.4841	130.3294	143.0808	146.2877	140.4999	137.2973	130.787	131.4307	128.534	129.9592	130.6197	132.4626	129.0079	128.7102	127.122	123.5043	121.3845	117.6938	115.6802	110.9326	101.5469	92.0244	86.5749	76.8986	70.4322	64.8444	59.9046	56.2479	51.6181	46.314	42.7356	39.1611	36.6588	33.9355	30.7518	27.1304	25.0842	22.6631	19.9318	18.3105	16.8	16.3424	14.8323	12.9514	10.239	10.2157
554	210.8325	179.4854	149.0541	122.9747	100.5141	128.9757	99.414	108.1144	118.9424	136.1444	139.8137	132.0552	131.9601	127.7906	125.0944	127.7373	123.9752	125.4413	126.5071	125.8649	124.8912	124.4005	120.6556	116.7002	114.7379	110.3625	108.9641	97.2719	90.7344	83.3168	75.7827	69.0446	64.3843	59.055	54.1272	50.9358	45.6778	42.666	38.2833	36.4729	33.1897	29.9186	28.0949	24.7729	22.0899	19.3106	17.9916	16.1509	16.2758	14.5096	13.4043	11.476	11.4498
556	213.2873	194.1156	118.2915	54.3138	0	123.5103	88.2334	96.4013	116.2563	127.9702	129.6171	131.7493	128.1205	125.3883	124.866	119.2079	123.9279	123.9808	124.2211	121.17	123.2749	119.9688	115.9018	112.9224	112.9011	108.4425	104.0721	95.3064	86.8089	82.3381	75.9832	65.3809	61.2273	57.4274	52.6642	48.957	45.1422	41.3787	38.8226	36.6391	32.7566	30.006	26.9604	24.123	21.4972	19.0099	17.6089	15.4806	16.037	14.791	13.1233	11.5225	11.4963
558	225.3767	185.1795	112.9309	51.9477	23.9597	126.6283	76.7119	97.8808	107.2956	119.5374	129.145	125.6227	125.149	120.1258	119.1415	117.7486	117.4574	117.7265	117.4662	117.6639	116.709	114.6403	112.1207	110.3588	106.7281	104.3153	98.7474	93.5993	84.1433	80.1109	72.2823	65.4929	60.4674	55.2741	51.5668	47.1006	43.7711	40.7567	37.7929	33.8887	31.6712	28.8747	26.3506	24.1988	20.8841	18.6979	17.1063	14.788	13.8601	15.062	12.1742	11.3531	11.3272
560	214.1067	202.0278	114.8504	52.9161	48.7114	118.6604	82.5478	88.606	98.0169	110.7962	124.8429	122.1426	120.4806	115.9119	111.9906	116.9295	113.3469	112.6383	112.1738	113.1569	111.3257	113.5692	108.9023	104.4243	102.8257	102.626	95.9447	90.8753	82.3186	76.4072	71.2748	63.894	59.2224	55.2085	49.0693	46.4187	42.8626	39.7353	35.5308	33.4386	31.0011	27.9815	27.4304	23.4009	20.2423	18.2612	16.5802	14.0672	11.4317	15.2075	13.1308	11.8802	11.8531
562	199.4263	192.0049	116.7708	67.211	74.2581	115.9923	89.4333	79.015	88.7286	101.7429	117.6735	115.9267	115.5772	112.3455	110.3985	110.5037	113.0163	110.8284	108.6648	108.7415	109.9725	106.8471	105.8514	103.9256	101.4098	97.7265	93.3339	87.6598	81.1026	73.2842	68.2023	61.8269	57.7418	52.7892	47.8349	46.0591	40.5526	39.0398	36.1681	32.7102	29.3082	27.1062	24.7274	23.7315	19.5709	17.7481	15.8728	13.3175	11.4823	13.1404	12.1755	10.6928	10.6684
564	211.7667	187.8325	118.6973	95.4858	100.6075	104.2693	92.9733	69.1134	79.4496	92.3838	118.6673	111.0395	110.9279	107.6215	105.1682	105.3845	106.0403	105.2718	107.7938	106.3054	107.3864	106.2736	97.7459	98.2245	96.9478	94.9729	89.462	83.5417	76.281	72.5372	66.1759	60.7506	55.9088	51.1016	47.7588	43.9675	39.4692	36.9735	34.4844	31.1788	29.0828	27.7664	24.6589	23.7936	20.4749	17.212	15.1374	12.9216	11.5293	11.6536	12.4097	11.3635	11.3376
566	177.7455	183.4989	120.7038	99.1739	80.6294	64.2426	85.5398	58.9382	69.9161	98.9387	109.4832	109.3091	101.5595	101.3997	102.586	99.7127	103.9942	101.2972	103.0566	101.8404	101.3512	99.6151	95.9951	94.8202	91.1081	91.6083	84.5215	80.2632	74.1702	68.9596	65.2452	57.7863	55.232	49.6434	45.2223	42.5886	38.0604	37.0254	33.682	30.9514	28.787	27.1286	24.0925	22.6382	19.5821	16.6629	14.5755	12.7099	11.5799	10.805	12.6721	11.4481	11.422
568	165.9996	176.7239	148.3766	90.8674	41.9162	0	93.9377	48.4698	81.9131	87.5773	100.042	105.3665	101.7266	98.1326	99.939	99.1574	96.8409	99.2625	98.1758	100.8622	97.4904	95.711	95.7996	93.5238	90.1085	87.9751	85.132	77.4401	73.0912	69.3905	61.5386	56.6317	54.5966	47.2113	44.383	41.468	37.3795	35.4726	33.2346	29.5137	27.0311	25.6803	23.5735	22.5089	19.7904	16.0994	14.3902	12.4935	11.6337	10.3778	11.901	10.7768	10.7522
570	190.0041	172.9694	148.1435	90.6058	41.6312	18.5922	89.4027	65.9415	70.4047	75.837	90.271	102.1334	99.1564	99.2978	94.2151	94.8331	93.7169	93.604	94.3075	97.4568	91.6567	95.2206	90.5374	89.9406	86.1252	86.4666	81.6351	76.9217	68.858	66.1817	58.7091	54.9899	49.4346	46.7263	43.5579	40.4535	36.1133	34.6281	31.7609	30.1374	27.3625	24.0623	23.6739	22.0973	20.2542	16.675	14.1924	12.5562	11.5539	9.9324	11.3341	10.3927	10.369
572	171.0386	157.1124	146.1899	91.8061	42.013	37.8621	89.9736	69.6062	58.6529	65.0118	80.3428	97.1039	94.7349	93.0757	91.063	90.7918	90.0258	92.8534	92.6595	92.6186	92.5535	91.409	87.2705	85.3088	84.7036	82.6222	79.2925	74.2205	68.8447	60.8998	57.4063	52.2335	49.2425	46.5305	41.5417	39.143	35.8037	32.9592	31.1146	28.7979	26.4322	23.8114	22.3932	20.9383	19.4036	16.4932	14.0118	12.642	11.2269	9.4891	9.8083	10.6404	10.6161
574	157.9504	163.8696	145.2463	92.9942	53.0072	57.8138	90.2049	69.4182	46.4787	54.9644	70.0377	91.6486	91.7025	88.8887	90.4305	90.0857	87.2904	88.5554	91.6498	89.729	86.5927	89.7685	85.7148	83.0765	80.9191	80.6038	75.3163	72.7069	63.9499	60.8985	55.5614	51.8643	47.9149	43.6223	41.0324	38.8325	35.0012	31.6692	30.4738	27.5497	26.0155	23.2689	21.7956	21.0539	18.4673	16.5481	13.8169	12.454	10.882	9.0251	7.1333	9.6917	9.6697
576	173.3525	146.8782	132.4753	94.1687	75.1811	78.4507	82.6066	74.9983	33.8832	44.5573	74.2265	85.1161	86.9985	87.2368	86.8859	85.4535	82.6659	83.5862	85.2852	87.4364	85.2691	84.9847	81.8965	80.3488	78.2309	76.772	75.7191	69.9233	63.0828	58.8984	54.6512	50.3695	46.0358	43.8992	38.5382	36.1437	33.2415	31.3041	29.0064	26.4028	24.3101	22.4499	21.6519	20.4988	19.0339	15.9955	13.6074	12.1156	10.4298	8.5403	6.9331	9.3731	9.3518
578	160.3281	121.4692	127.3307	95.3297	76.6363	60.1511	46.7909	70.1629	20.8688	57.8334	65.8766	78.3242	84.7789	85.731	85.3779	83.5961	83.9357	82.6669	85.1151	84.5846	83.2559	83.7683	79.4534	75.5276	74.5673	74.4084	72.8758	66.7739	61.1486	57.8704	52.3127	49.0862	44.642	41.3129	39.0604	35.287	33.7989	30.6976	28.7897	26.2435	24.0329	22.0098	20.059	19.4776	17.5262	16.5332	14.6489	11.7591	9.9568	8.2741	6.7223	8.7453	8.7254
580	149.0665	105.5277	121.5324	104.8147	64.4962	29.7304	0	75.2117	43.1405	49.4788	57.2276	71.2748	79.1613	78.9806	77.8588	79.3531	81.3477	79.3665	82.5993	78.959	80.1129	80.9727	77.6185	75.9682	74.1776	74.1404	70.0568	63.9422	59.8724	55.3365	51.4109	47.7381	43.2549	40.8738	37.5548	34.679	31.8921	30.3193	29.0542	25.2219	22.8941	22.1982	20.1411	19.0524	17.8704	16.0707	14.3042	11.3849	9.5845	8.1167	6.5011	6.7441	6.7287
582	129.8129	86.7366	83.6522	90.2537	55.5141	25.5429	14.3663	67.0971	41.0807	40.8508	49.197	63.987	78.5167	78.3635	77.1762	78.295	75.6087	78.0333	76.8086	78.1725	75.3682	77.3724	73.7161	71.4168	71.4623	68.3213	67.0848	64.1153	58.3691	53.9265	49.9838	44.5619	41.6977	38.9707	35.8868	33.6077	31.8942	29.5872	27.3093	24.2705	22.7645	20.5695	18.964	18.5187	16.7279	15.1721	14.3809	10.9962	9.4446	7.9523	6.2713	4.5965	4.5861
584	130.1643	102.8126	93.7516	90.4214	56.2772	25.8387	29.2107	71.7625	49.3394	31.9326	41.8062	56.438	74.3806	74.5079	73.8674	74.9391	73.71	75.1239	72.7584	75.1068	73.9894	72.6821	72.4008	69.182	68.9354	69.4814	64.3043	59.3545	58.0529	49.6585	48.5868	41.2703	42.8693	37.5914	34.6565	31.9465	29.5182	28.3253	25.5137	24.264	23.1635	20.2065	18.6779	18.2237	17.2724	15.7062	13.2409	11.8564	9.2955	7.7385	6.031	4.0522	2.226
586	131.5675	89.2967	83.0114	79.8683	57.0275	34.0472	44.5283	73.5549	53.7554	22.7213	34.1611	59.8429	69.047	70.8199	70.7296	72.0382	71.2377	72.8166	73.4049	70.2288	69.5857	70.543	68.0478	67.5695	69.1874	64.4993	62.5844	58.5031	52.9366	49.926	46.2921	43.2348	39.8203	35.6665	34.0857	30.3565	29.3638	27.3477	24.4147	22.7417	20.9009	20.7077	18.9894	18.065	16.5736	14.7291	14.1736	12.1604	9.1355	7.5128	5.8239	3.4882	0
588	87.3358	71.7138	81.4814	91.4406	57.765	50.5471	60.3142	71.0573	49.7752	13.2226	44.7236	52.6579	63.5094	70.8938	69.6651	70.8584	70.5246	69.5845	71.9916	67.3895	69.021	68.7311	66.3033	64.6436	64.5698	63.8189	60.7452	57.7222	51.3632	48.4686	45.0778	41.1933	39.2917	35.1191	33.6491	29.9502	28.4589	27.3878	25.4296	21.5584	20.2073	19.049	17.5247	16.7588	16.0203	14.6394	14.1891	11.8843	8.9649	7.2982	5.6296	2.9047	0
590	128.7851	55.5339	76.4595	78.4607	58.4989	52.0502	47.291	44.277	49.0055	30.5249	37.5578	45.2391	57.7804	64.435	66.1249	67.1652	66.3981	65.9295	66.6341	68.5675	67.291	64.5227	65.4162	61.9062	62.5046	59.7569	59.0563	55.2405	51.6788	46.8326	43.2363	39.6219	37.0833	34.2936	31.7571	29.1027	27.337	25.9434	23.8416	21.1556	20.4217	18.4344	17.7495	15.7999	17.2092	14.1229	13.8452	11.8248	8.7852	7.1201	5.2474	2.3024	0
592	113.7075	67.3912	77.6722	78.1263	71.8757	44.1929	20.8422	0	48.8871	32.6702	30.2781	38.5911	52.0479	64.8701	65.5022	63.2711	66.2236	64.0115	66.7987	64.2681	65.5844	62.7003	60.9734	61.8697	61.1393	60.8882	55.3716	53.7656	49.1484	44.832	42.2732	39.3931	35.7418	33.2715	30.2861	28.5946	26.5451	23.9898	22.6267	22.5248	18.7692	18.7226	17.3458	16.6005	14.9435	14.3256	12.2735	11.8913	9.5501	6.9586	4.6864	2.3254	0
594	105.7297	64.1141	65.5073	63.0446	87.1203	52.6003	21.9767	13.9675	56.9438	36.9775	22.7189	32.5631	46.0758	59.7995	60.4703	62.7755	63.723	64.1675	64.3502	60.5581	62.7305	61.9078	61.4694	57.9226	57.796	57.6127	54.0513	52.354	47.1345	44.2432	40.0975	38.1315	34.6189	32.7909	31.4112	28.054	25.0971	24.0044	22.2946	19.898	19.8723	17.5597	17.4539	15.5714	15.2666	13.9711	12.0264	11.7959	10.0298	6.7867	4.7524	0	0
596	86.4145	93.094	57.3024	74.0191	85.5506	47.4444	34.9543	28.461	58.6648	42.0286	14.8872	26.3138	44.8703	55.1417	59.8937	58.3527	57.9868	63.5384	60.1131	62.2983	62.0672	60.8985	57.7855	57.5732	56.3125	55.592	53.9388	49.9823	44.5674	42.8258	39.4933	35.812	33.6259	31.6266	29.3527	28.1738	25.3337	22.4898	21.5345	19.8206	18.5499	17.686	16.3599	14.7298	14.1308	13.3265	12.6787	11.5049	9.841	6.6072	4.817	0	0
598	89.6924	76.8942	40.3435	69.2218	78.579	59.6989	50.5019	43.5012	63.662	33.8637	6.773	28.9951	39.8844	50.3041	56.7218	57.9911	56.0366	57.3369	59.2315	61.9753	57.5423	60.4604	55.6751	55.0418	52.5902	52.8017	53.8952	49.2907	43.5602	41.0696	38.2887	34.2795	33.5703	29.5092	28.2052	26.3003	24.1426	22.1671	21.0563	19.5136	17.6747	16.0425	16.0297	14.9357	13.8382	12.9664	11.9645	10.3441	8.6361	8.058	0	0	0
600	95.652	49.9328	56.3721	50.7852	90.1385	76.8823	66.6085	59.0847	53.9431	39.8528	13.1308	23.7681	34.6945	45.261	55.891	53.593	57.7116	56.6187	56.4771	55.2698	54.7907	55.1327	56.9246	53.2382	53.3492	53.2462	50.566	48.3306	43.0951	41.1573	38.0495	34.5036	31.5453	28.7403	28.0002	25.6306	23.0216	22.1069	21.2963	19.6645	17.2913	16.0349	15.7313	14.6123	13.6918	13.1868	11.7457	10.6742	9.3952	7.4915	0	0	0
