Description	SOS (clean blank)																																																				
EEM type	"Dilution- & Scatter-corrected, Calibrated Data (ppb QSE)"																																																				
Scan date	10/1/2010 14:39																																																				
Excitation	240-500nm by 5nm																																																				
Emission	290-600nm by 2nm																																																				
Calibration	Michael_Fluoromax4_April08 (07-Apr-2008)																																																				
Slit settings	"5nm Excitation, 5nm Emission"																																																				
Dilution	30																																																				
Row 1	Excitation(nm)																																																				
Col 1	Emission(nm)																																																				
Data	Fluorescence(ppb QSE)																																																				
																																																					
	240	245	250	255	260	265	270	275	280	285	290	295	300	305	310	315	320	325	330	335	340	345	350	355	360	365	370	375	380	385	390	395	400	405	410	415	420	425	430	435	440	445	450	455	460	465	470	475	480	485	490	495	500
290	0	0	0	0	0	0	0	0	0	0	0	0	0	0	0	0	0	0	0	0	0	0	0	0	0	0	0	0	0	0	0	0	0	0	0	0	0	0	0	0	0	0	0	0	0	0	0	0	0	0	0	0	0
292	0	0	0	0	0	0	0	1.1166	0	0	0	0	0	0	0	0	0	0	0	0	0	0	0	0	0	0	0	0	0	0	0	0	0	0	0	0	0	0	0	0	0	0	0	0	0	0	0	0	0	0	0	0	0
294	0	0	0	0	0	0	0	2.2088	0	0	0	0	0	0	0	0	0	0	0	0	0	0	0	0	0	0	0	0	0	0	0	0	0	0	0	0	0	0	0	0	0	0	0	0	0	0	0	0	0	0	0	0	0
296	0	0	0	0	0	0	3.3576	3.2723	0	0	0	0	0	0	0	0	0	0	0	0	0	0	0	0	0	0	0	0	0	0	0	0	0	0	0	0	0	0	0	0	0	0	0	0	0	0	0	0	0	0	0	0	0
298	0	0	0	0	0	0	6.6228	4.3027	2.2977	0	0	0	0	0	0	0	0	0	0	0	0	0	0	0	0	0	0	0	0	0	0	0	0	0	0	0	0	0	0	0	0	0	0	0	0	0	0	0	0	0	0	0	0
300	0	0	0	0	0	3.4564	8.7068	5.3028	4.5311	0	0	0	0	0	0	0	0	0	0	0	0	0	0	0	0	0	0	0	0	0	0	0	0	0	0	0	0	0	0	0	0	0	0	0	0	0	0	0	0	0	0	0	0
302	0	0	0	0	0	6.9249	9.8112	9.9107	6.8082	0	0	0	0	0	0	0	0	0	0	0	0	0	0	0	0	0	0	0	0	0	0	0	0	0	0	0	0	0	0	0	0	0	0	0	0	0	0	0	0	0	0	0	0
304	0	0	0	0	0	10.4055	10.9193	14.5352	9.0929	2.7341	0	0	0	0	0	0	0	0	0	0	0	0	0	0	0	0	0	0	0	0	0	0	0	0	0	0	0	0	0	0	0	0	0	0	0	0	0	0	0	0	0	0	0
306	0	0	0	0	0	13.8913	15.6655	17.9834	11.3797	5.4748	0	0	0	0	0	0	0	0	0	0	0	0	0	0	0	0	0	0	0	0	0	0	0	0	0	0	0	0	0	0	0	0	0	0	0	0	0	0	0	0	0	0	0
308	0	0	0	0	0	17.3771	20.4138	20.2453	14.8578	8.2181	0	0	0	0	0	0	0	0	0	0	0	0	0	0	0	0	0	0	0	0	0	0	0	0	0	0	0	0	0	0	0	0	0	0	0	0	0	0	0	0	0	0	0
310	0	0	0	0	0	19.8413	25.1698	22.5103	18.341	10.9652	3.3973	0	0	0	0	0	0	0	0	0	0	0	0	0	0	0	0	0	0	0	0	0	0	0	0	0	0	0	0	0	0	0	0	0	0	0	0	0	0	0	0	0	0
312	0	0	0	0	0	23.0028	29.753	25.8022	21.302	13.6337	6.7587	0	0	0	0	0	0	0	0	0	0	0	0	0	0	0	0	0	0	0	0	0	0	0	0	0	0	0	0	0	0	0	0	0	0	0	0	0	0	0	0	0	0
314	0	0	0	0	0	26.8117	34.2864	29.0577	23.8364	17.792	10.0842	0	0	0	0	0	0	0	0	0	0	0	0	0	0	0	0	0	0	0	0	0	0	0	0	0	0	0	0	0	0	0	0	0	0	0	0	0	0	0	0	0	0
316	0	0	0	0	2.5537	23.8443	37.9834	32.1698	26.2551	21.8328	13.3295	3.1976	0	0	0	0	0	0	0	0	0	0	0	0	0	0	0	0	0	0	0	0	0	0	0	0	0	0	0	0	0	0	0	0	0	0	0	0	0	0	0	0	0
318	0	0	0	0	10.1181	26.914	40.8516	35.105	29.9852	25.2179	16.4612	6.3182	0	0	0	0	0	0	0	0	0	0	0	0	0	0	0	0	0	0	0	0	0	0	0	0	0	0	0	0	0	0	0	0	0	0	0	0	0	0	0	0	0
320	0	0	0	0	12.6467	40.358	44.4607	37.9588	33.6166	28.0237	18.7052	9.3617	0	0	0	0	0	0	0	0	0	0	0	0	0	0	0	0	0	0	0	0	0	0	0	0	0	0	0	0	0	0	0	0	0	0	0	0	0	0	0	0	0
322	0	0	0	13.9778	15.4468	33.0722	45.5266	45.84	36.9769	30.6098	20.7917	12.2709	3.2524	0	0	0	0	0	0	0	0	0	0	0	0	0	0	0	0	0	0	0	0	0	0	0	0	0	0	0	0	0	0	0	0	0	0	0	0	0	0	0	0
324	0	0	0	18.0934	22.3403	36.7131	45.3935	48.037	40.2016	32.343	23.0551	15.0743	6.3927	0	0	0	0	0	0	0	0	0	0	0	0	0	0	0	0	0	0	0	0	0	0	0	0	0	0	0	0	0	0	0	0	0	0	0	0	0	0	0	0
326	21.1781	0	0	11.9783	24.609	42.7237	50.1617	51.1501	43.2714	33.9813	25.4704	18.0615	9.4169	0	0	0	0	0	0	0	0	0	0	0	0	0	0	0	0	0	0	0	0	0	0	0	0	0	0	0	0	0	0	0	0	0	0	0	0	0	0	0	0
328	13.385	0	9.1293	10.2279	33.1348	40.0222	51.1667	49.8636	46.9903	35.5218	27.7692	20.9198	12.3205	2.9279	0	0	0	0	0	0	0	0	0	0	0	0	0	0	0	0	0	0	0	0	0	0	0	0	0	0	0	0	0	0	0	0	0	0	0	0	0	0	0
330	1.5637	1.8339	0	13.3533	34.1034	40.654	53.1891	56.606	50.6967	36.9786	30.2354	23.5603	15.1063	5.744	0	0	0	0	0	0	0	0	0	0	0	0	0	0	0	0	0	0	0	0	0	0	0	0	0	0	0	0	0	0	0	0	0	0	0	0	0	0	0
332	30.4529	16.8656	17.5997	20.1025	30.7003	45.6681	47.9366	56.5209	55.2893	37.9406	32.2352	25.71	17.1058	8.3576	0	0	0	0	0	0	0	0	0	0	0	0	0	0	0	0	0	0	0	0	0	0	0	0	0	0	0	0	0	0	0	0	0	0	0	0	0	0	0
334	32.3458	22.7537	21.2619	28.317	37.0996	48.9515	46.5319	51.5552	55.6259	47.2408	34.0547	27.6826	18.9532	10.7988	3.1132	0	0	0	0	0	0	0	0	0	0	0	0	0	0	0	0	0	0	0	0	0	0	0	0	0	0	0	0	0	0	0	0	0	0	0	0	0	0
336	33.9282	22.1209	30.0658	34.6331	35.2024	51.2974	47.2639	55.2457	52.4907	48.2125	35.7301	29.0701	20.8192	13.0808	6.0339	0	0	0	0	0	0	0	0	0	0	0	0	0	0	0	0	0	0	0	0	0	0	0	0	0	0	0	0	0	0	0	0	0	0	0	0	0	0
338	31.5922	28.1801	26.5283	32.3431	41.916	49.7816	50.7926	50.0211	56.0685	51.8884	37.2696	30.3455	22.6969	16.3414	8.7711	0	0	0	0	0	0	0	0	0	0	0	0	0	0	0	0	0	0	0	0	0	0	0	0	0	0	0	0	0	0	0	0	0	0	0	0	0	0
340	45.2632	28.5063	31.2385	45.7915	41.658	50.7663	51.1802	54.0246	55.8236	49.3218	41.3451	31.4816	24.4133	19.3681	11.3217	3.6006	0	0	0	0	0	0	0	0	0	0	0	0	0	0	0	0	0	0	0	0	0	0	0	0	0	0	0	0	0	0	0	0	0	0	0	0	0
342	71.2543	27.688	37.6762	46.5117	49.6403	55.9761	56.6142	55.5064	57.6495	49.6556	44.0971	32.6557	27.1684	21.9269	13.7601	7.0021	0	0	0	0	0	0	0	0	0	0	0	0	0	0	0	0	0	0	0	0	0	0	0	0	0	0	0	0	0	0	0	0	0	0	0	0	0
344	62.202	49.9198	49.0374	47.9956	52.0666	53.3653	62.8623	56.8347	57.6876	56.6589	45.2543	33.7125	29.7277	23.9645	18.1823	10.2042	0	0	0	0	0	0	0	0	0	0	0	0	0	0	0	0	0	0	0	0	0	0	0	0	0	0	0	0	0	0	0	0	0	0	0	0	0
346	70.8086	44.7323	58.9194	51.1812	56.4455	52.4278	60.9564	59.3655	60.3926	57.7756	51.9311	40.3883	32.1754	25.9135	22.3813	13.2416	4.1902	0	0	0	0	0	0	0	0	0	0	0	0	0	0	0	0	0	0	0	0	0	0	0	0	0	0	0	0	0	0	0	0	0	0	0	0
348	74.79	56.8963	65.4455	62.1436	63.6066	64.7903	63.8803	62.0365	63.6948	59.0497	56.8483	47.0335	34.5369	29.8184	25.716	16.14	8.1723	0	0	0	0	0	0	0	0	0	0	0	0	0	0	0	0	0	0	0	0	0	0	0	0	0	0	0	0	0	0	0	0	0	0	0	0
350	88.4569	75.1263	63.4938	63.4686	63.2544	66.9194	71.1554	61.1949	64.1691	61.3957	57.4093	49.7158	36.7364	33.4909	28.1914	19.7079	11.9459	4.8706	0	0	0	0	0	0	0	0	0	0	0	0	0	0	0	0	0	0	0	0	0	0	0	0	0	0	0	0	0	0	0	0	0	0	0
352	78.7506	71.7863	76.7813	73.2275	71.8163	67.9089	67.418	70.1394	67.5019	64.3471	61.9298	54.7453	46.698	36.9383	30.5084	23.0717	15.5141	7.9526	1.3991	0	0	0	0	0	0	0	0	0	0	0	0	0	0	0	0	0	0	0	0	0	0	0	0	0	0	0	0	0	0	0	0	0	0
354	103.4385	78.0458	81.6034	77.2552	73.2419	74.8864	71.7051	70.146	71.6051	68.6453	63.2289	57.1581	47.9306	40.1547	33.4501	26.2283	20.6104	14.4137	5.7699	0	0	0	0	0	0	0	0	0	0	0	0	0	0	0	0	0	0	0	0	0	0	0	0	0	0	0	0	0	0	0	0	0	0
356	95.3983	93.7543	77.5969	77.6778	82.4105	77.4829	78.3025	72.549	75.0796	69.977	67.1963	64.5778	58.1765	43.2883	37.996	32.6644	27.1602	20.5807	12.6219	3.0079	0	0	0	0	0	0	0	0	0	0	0	0	0	0	0	0	0	0	0	0	0	0	0	0	0	0	0	0	0	0	0	0	0
358	116.6795	97.8997	85.1076	85.2715	82.3445	80.2898	79.3209	77.7993	75.1556	72.9832	69.3269	67.3141	63.8044	50.2574	44.0773	38.889	33.4293	26.5201	18.9991	9.9119	3.4961	0	0	0	0	0	0	0	0	0	0	0	0	0	0	0	0	0	0	0	0	0	0	0	0	0	0	0	0	0	0	0	0
360	116.4348	100.7964	97.2144	93.7276	89.292	80.1541	79.6399	78.2667	80.5102	77.5973	77.0215	71.5304	68.8487	58.3036	49.86	44.7634	39.4018	32.1833	25.3386	15.8206	5.5133	0	0	0	0	0	0	0	0	0	0	0	0	0	0	0	0	0	0	0	0	0	0	0	0	0	0	0	0	0	0	0	0
362	124.0729	120.0347	103.5912	94.5201	93.7586	89.7069	89.4031	84.256	88.4153	85.5234	80.7315	78.9619	72.836	65.8783	55.7344	50.6705	44.9345	38.564	31.6007	21.0283	11.6377	2.8103	0	0	0	0	0	0	0	0	0	0	0	0	0	0	0	0	0	0	0	0	0	0	0	0	0	0	0	0	0	0	0
364	142.9998	125.4051	110.6745	104.5308	104.2721	97.8688	93.6652	89.8725	93.3677	88.301	86.1051	82.1069	79.4932	70.815	64.2645	56.3729	50.2767	46.1681	37.6569	27.5574	14.7924	7.8616	0	0	0	0	0	0	0	0	0	0	0	0	0	0	0	0	0	0	0	0	0	0	0	0	0	0	0	0	0	0	0
366	168.6621	143.309	125.3943	118.977	111.8801	101.9254	101.9934	94.6566	93.4187	92.1647	91.9389	89.7404	86.7019	80.0705	71.9165	61.9216	56.8873	53.5592	43.5428	33.6114	22.2049	11.6018	3.4582	0	0	0	0	0	0	0	0	0	0	0	0	0	0	0	0	0	0	0	0	0	0	0	0	0	0	0	0	0	0
368	167.599	150.9686	136.2132	128.8018	120.1323	110.4437	107.6215	99.5716	104.0152	101.3429	95.1958	95.6906	95.9203	86.7612	81.9758	67.3323	64.0246	59.1763	49.294	39.5023	29.0931	16.2239	7.0797	0	0	0	0	0	0	0	0	0	0	0	0	0	0	0	0	0	0	0	0	0	0	0	0	0	0	0	0	0	0
370	171.4779	170.5129	152.2061	134.4001	127.7715	116.8453	117.1471	108.0533	105.4761	102.6331	105.1702	102.448	102.5788	94.8965	90.6092	81.104	70.9307	64.6069	54.8981	45.2076	35.4579	22.8787	12.4963	0	0	0	0	0	0	0	0	0	0	0	0	0	0	0	0	0	0	0	0	0	0	0	0	0	0	0	0	0	0
372	205.5475	188.9535	158.0436	146.3746	135.0093	127.1975	117.661	115.1955	117.5696	114.0294	112.4205	111.6519	109.9877	105.7452	97.1254	90.3263	78.0044	70.2487	60.6248	53.0121	43.0163	27.0469	16.4283	7.8833	0	0	0	0	0	0	0	0	0	0	0	0	0	0	0	0	0	0	0	0	0	0	0	0	0	0	0	0	0
374	218.8286	180.5094	175.4227	159.6248	144.6799	136.2689	128.6151	125.7285	123.0148	121.9687	119.4812	118.5589	118.5687	114.8496	108.9633	98.2859	84.9259	77.8154	70.2668	62.6617	50.4206	36.8337	21.2815	10.3615	0	0	0	0	0	0	0	0	0	0	0	0	0	0	0	0	0	0	0	0	0	0	0	0	0	0	0	0	0
376	232.831	209.8625	179.8624	171.7422	157.578	142.485	135.8768	132.5569	129.2829	130.7616	128.6185	129.406	127.5535	122.6754	116.4888	110.0711	96.4435	87.1536	79.6396	70.7983	57.6204	43.0815	27.0139	15.0332	3.8367	0	0	0	0	0	0	0	0	0	0	0	0	0	0	0	0	0	0	0	0	0	0	0	0	0	0	0	0
378	251.786	215.232	198.3007	176.8146	164.3676	154.4007	150.1836	139.5208	140.2487	136.3103	138.4475	138.7418	137.8146	134.9192	127.1301	119.2317	107.9267	96.1877	88.7159	78.6748	64.5952	50.3658	34.2119	19.6541	10.5539	0	0	0	0	0	0	0	0	0	0	0	0	0	0	0	0	0	0	0	0	0	0	0	0	0	0	0	0
380	274.2527	232.5762	200.1789	187.9629	183.9151	165.0208	151.3197	149.8954	148.1661	147.1728	149.1965	149.015	146.7534	144.6833	137.0661	128.8157	118.2396	104.9838	96.3237	85.8678	71.3879	57.465	40.587	26.2857	14.3404	3.3656	0	0	0	0	0	0	0	0	0	0	0	0	0	0	0	0	0	0	0	0	0	0	0	0	0	0	0
382	284.8772	242.7005	224.1093	203.1289	187.2652	173.0674	165.5779	161.7933	156.5011	151.9002	155.3433	156.9277	156.9666	152.0465	149.7705	141.9571	128.9496	114.0608	104.1969	92.8159	79.9878	64.6729	47.3712	32.139	18.7649	8.9744	0	0	0	0	0	0	0	0	0	0	0	0	0	0	0	0	0	0	0	0	0	0	0	0	0	0	0
384	323.9115	273.0882	234.2741	216.1651	197.7823	182.6015	178.0534	162.7328	164.4011	161.9991	167.5361	164.4895	165.2436	165.5703	159.4229	150.7687	138.1285	126.5394	111.9398	99.6485	88.4501	71.7649	53.9946	38.4568	24.2496	12.9019	0.9622	0	0	0	0	0	0	0	0	0	0	0	0	0	0	0	0	0	0	0	0	0	0	0	0	0	0
386	320.3039	272.152	249.6851	234.9187	205.869	188.9856	181.894	174.401	166.7386	168.697	169.5602	175.9963	176.3576	175.9158	169.1937	163.7506	153.5212	137.1397	119.9997	108.3993	96.4623	79.035	60.7369	44.8718	29.6119	17.5807	6.1409	0	0	0	0	0	0	0	0	0	0	0	0	0	0	0	0	0	0	0	0	0	0	0	0	0	0
388	347.7414	290.4727	258.2189	240.4739	221.5066	199.4105	186.5829	183.6572	178.2104	176.216	180.3551	183.9341	190.2302	181.5461	181.5982	170.2248	160.9965	147.7756	128.4724	117.5174	104.1256	86.1711	67.6758	51.2767	34.0943	22.4712	9.8236	0	0	0	0	0	0	0	0	0	0	0	0	0	0	0	0	0	0	0	0	0	0	0	0	0	0
390	336.503	318.433	282.5581	256.0827	237.1507	214.1204	200.5314	190.6216	188.4932	184.5711	192.4861	194.9892	199.2146	196.1675	193.5805	182.1074	171.7088	159.6902	140.2378	126.6331	111.7859	93.304	74.6116	57.1668	44.8073	27.6145	15.6701	5.0827	0	0	0	0	0	0	0	0	0	0	0	0	0	0	0	0	0	0	0	0	0	0	0	0	0
392	386.0608	332.1508	296.0384	259.0778	242.9066	225.1221	209.5109	197.493	196.3727	193.7619	198.416	205.9977	207.9225	205.2537	204.4784	194.5237	184.3729	170.4757	154.8416	134.9329	118.3259	99.8327	82.7075	65.9794	50.251	32.8786	19.8234	9.3472	0	0	0	0	0	0	0	0	0	0	0	0	0	0	0	0	0	0	0	0	0	0	0	0	0
394	410.1439	355.1758	301.5768	281.8175	251.4494	230.6166	219.6108	203.7042	204.1513	202.0484	209.1767	212.5315	215.9367	217.4781	214.0234	204.1663	193.5252	182.454	165.6721	143.1196	126.4955	109.651	92.4683	74.6788	57.5283	40.5197	24.5533	14.4727	1.9692	0	0	0	0	0	0	0	0	0	0	0	0	0	0	0	0	0	0	0	0	0	0	0	0
396	437.1513	362.411	325.2259	285.2048	269.1278	246.8331	229.4414	214.2456	209.9628	212.0105	214.4353	224.2954	231.5416	231.5318	222.9908	217.3224	206.1688	193.9971	176.354	155.7866	136.4765	119.5259	102.5199	83.394	64.691	48.5775	30.6947	18.4392	7.7041	0	0	0	0	0	0	0	0	0	0	0	0	0	0	0	0	0	0	0	0	0	0	0	0
398	424.3065	400.529	343.0191	311.6719	281.8264	258.1585	242.0915	229.5819	222.6458	220.136	224.5276	237.828	238.7974	240.033	238.0885	229.2135	217.6804	205.8231	188.834	170.5681	146.5878	129.7724	112.6495	92.1673	72.8072	54.4725	36.9202	22.2225	12.7267	0	0	0	0	0	0	0	0	0	0	0	0	0	0	0	0	0	0	0	0	0	0	0	0
400	447.5816	393.9672	348.4443	320.2702	294.5968	274.0883	251.192	236.7806	228.5489	230.4902	236.3068	241.7598	248.4813	253.7745	250.3779	243.8821	233.2672	220.8567	204.3753	182.4452	156.6334	140.0857	121.5194	100.9211	80.8703	60.6087	43.4032	26.5213	17.2255	5.4114	0	0	0	0	0	0	0	0	0	0	0	0	0	0	0	0	0	0	0	0	0	0	0
402	488.7081	425.2395	359.5393	334.1701	307.8196	289.2364	258.7533	247.7167	237.886	236.1758	245.6122	255.7752	258.3062	264.9541	266.7844	259.1938	246.1296	234.2991	216.3079	197.2222	171.2007	150.0737	130.1067	109.505	88.7274	68.3115	52.0805	33.4829	20.7055	10.2008	0	0	0	0	0	0	0	0	0	0	0	0	0	0	0	0	0	0	0	0	0	0	0
404	499.2308	433.4786	388.6002	350.9693	326.5267	290.2509	275.3995	253.1609	244.3837	244.9817	251.5879	261.7788	272.0953	276.5463	277.2637	270.7248	257.3063	244.9542	230.2488	208.3773	186.4991	159.9574	138.68	117.9993	96.5026	76.0416	57.6351	40.2745	25.5277	15.7142	3.0488	0	0	0	0	0	0	0	0	0	0	0	0	0	0	0	0	0	0	0	0	0	0
406	505.0232	445.2774	393.4918	367.3906	337.8007	310.3308	292.4454	264.8335	260.9215	252.9355	262.0547	274.4131	281.2653	286.0453	291.1328	285.8295	273.1315	263.2896	244.7501	223.4465	199.0573	170.0555	147.4761	125.9262	104.3549	83.8482	64.7539	45.7108	29.2617	19.8909	6.8597	0	0	0	0	0	0	0	0	0	0	0	0	0	0	0	0	0	0	0	0	0	0
408	531.9244	474.0389	405.0116	381.0393	360.7806	323.684	300.1389	275.2893	272.1743	265.8991	272.7335	285.4961	292.1655	300.7845	303.219	295.8432	289.1012	275.5684	256.5461	234.6963	211.8851	182.8136	156.5088	134.0523	112.2941	91.7763	71.8249	51.8912	34.5534	23.3243	13.2931	0	0	0	0	0	0	0	0	0	0	0	0	0	0	0	0	0	0	0	0	0	0
410	531.8384	497.9067	437.8967	400.4944	369.7484	342.8567	306.222	287.3944	278.7043	275.5243	281.5214	293.3312	307.7611	310.2331	312.0302	310.5076	300.3103	287.5082	269.3868	247.9539	224.8829	197.6925	165.5192	142.0839	120.2131	100.5848	79.33	59.177	42.7502	26.731	17.3103	5.5101	0	0	0	0	0	0	0	0	0	0	0	0	0	0	0	0	0	0	0	0	0
412	584.6515	493.6237	445.5772	419.3386	381.2855	347.4926	319.2969	301.8191	286.8441	282.0688	290.3229	307.8575	312.2526	318.8656	326.934	325.078	314.3654	299.3708	284.5647	264.2991	237.6674	210.9245	174.5205	150.9868	129.9298	110.2792	86.822	67.4645	48.0584	33.0824	22.2333	10.718	0	0.0935	0.11	0	0	0	0	0	0	0	0	0	0	0	0	0	0	0	0	0	0
414	601.922	518.7456	463.2389	434.4283	401.113	362.4555	331.6672	310.5199	295.1759	286.3829	300.0919	308.304	322.4042	328.9896	337.4413	336.7055	329.3674	314.7795	300.0062	277.2501	250.5889	221.745	190.6563	160.7854	139.6245	117.7195	94.2956	73.1571	54.2266	37.3461	25.1703	15.4982	2.5902	0.2802	0.2197	0	0	0	0	0	0	0	0	0	0	0	0	0	0	0	0	0	0
416	568.6967	544.1676	488.0619	442.6361	410.9546	373.5992	340.2537	314.7922	307.7057	304.2685	305.8738	317.8172	329.256	343.9651	343.9849	348.6827	342.1274	331.1399	313.4591	291.2804	264.7325	236.0097	206.1179	170.9513	149.6383	125.4266	101.9828	78.6882	61.014	43.4279	29.4065	18.8603	9.4067	0.4673	0.3298	0	0	0	0	0	0	0	0	0	0	0	0	0	0	0	0	0	0
418	631.7526	557.358	496.5737	461.0906	424.9799	385.4458	349.9593	325.1424	315.6145	310.5446	314.9319	330.5857	339.0603	352.0261	358.4617	362.6001	353.2879	343.1764	324.2002	306.7192	277.5054	247.4201	215.7075	181.5537	157.7825	133.453	110.8882	87.0407	65.5965	49.1456	33.8936	23.8943	13.5039	0.6562	0.2205	0	0	0	0	0	0	0	0	0	0	0	0	0	0	0	0	0	0
420	654.3103	554.7917	514.7607	475.9797	444.6345	398.3793	368.142	340.5672	328.2401	319.369	322.7615	337.5313	352.3586	359.7563	369.7794	375.6174	368.4424	356.3781	340.3269	317.1939	289.7375	258.4005	228.2883	192.2265	166.9405	143.4434	120.1145	95.448	72.9769	54.5227	39.5137	26.6018	17.1843	5.8542	0.1106	0	0	0	0	0	0	0	0	0	0	0	0	0	0	0	0	0	0
422	651.4591	598.9924	538.7373	484.8439	449.6072	406.3663	373.4164	346.3628	331.8063	329.7727	335.9936	346.0032	359.9141	370.7565	377.3421	383.2536	378.9899	371.5717	353.9674	331.9275	304.0612	274.4441	242.4429	206.2311	177.1665	153.538	128.0402	103.9349	80.1813	59.9664	43.5149	30.2895	21.1988	11.1853	0	0.2561	0.3001	0	0	0	0	0	0	0	0	0	0	0	0	0	0	0	0
424	662.8739	607.7121	542.8588	495.1595	470.2256	432.8048	390.1217	359.7571	340.6902	332.203	341.6985	353.6494	367.6094	379.1034	393.669	394.6416	391.5965	383.0869	364.8721	345.5368	320.8706	286.9231	253.713	218.1954	187.4641	162.3046	136.0199	112.4808	87.3633	67.1209	48.8763	34.1086	25.0854	14.5816	3.6206	0.7709	0.6022	0	0	0	0	0	0	0	0	0	0	0	0	0	0	0	0
426	695.0077	618.0474	563.1834	517.6511	480.0212	433.5143	399.1374	364.8577	347.6872	339.8167	341.9125	356.9649	371.0859	387.9942	400.784	405.0336	404.2445	396.2759	380.5969	358.3677	333.5863	300.8673	263.8738	230.0683	198.1551	170.7049	144.9198	120.4026	94.7474	72.0956	55.4727	39.3819	28.1217	19.2004	8.0581	1.2911	0.9077	0	0	0	0	0	0	0	0	0	0	0	0	0	0	0	0
428	697.5356	632.8884	576.7563	541.4969	498.0489	449.0229	413.1925	372.0495	356.241	352.9371	355.8827	366.6935	381.444	398.4935	404.9061	417.2137	414.7545	412.6801	391.1635	374.7487	345.4951	308.8015	275.6861	244.9435	208.7178	179.4734	154.1535	126.8363	102.3678	79.6589	62.0875	44.9547	32.5154	22.3393	12.6275	1.8191	0.609	0	0	0	0	0	0	0	0	0	0	0	0	0	0	0	0
430	730.1537	659.5121	576.358	546.3151	512.0716	465.8212	422.3597	389.941	363.9178	355.9423	358.2796	374.2893	388.6973	404.78	412.61	421.9099	428.7814	422.2009	407.8786	387.0039	358.1054	324.2778	287.4324	255.7958	221.8542	188.3464	161.7193	133.3457	110.0828	86.6001	67.6474	49.7869	35.7486	25.4066	15.4209	5.8458	0.3064	0	0	0	0	0	0	0	0	0	0	0	0	0	0	0	0
432	736.9473	660.1595	596.6031	561.0313	518.0414	462.0204	430.2207	397.9916	376.5681	364.9944	363.0675	380.1811	393.8914	409.1361	425.7701	435.2484	439.5352	434.4311	416.7637	400.4289	369.6379	337.5291	300.7783	261.4903	229.627	197.1069	168.2924	141.1463	117.5386	93.5242	71.8978	55.0394	40.4187	29.2293	20.8154	10.3572	0	0.4604	0.538	0	0	0	0	0	0	0	0	0	0	0	0	0	0
434	731.3669	653.507	604.6638	561.5087	528.5255	484.733	442.742	396.9934	378.3844	367.6885	370.6739	385.465	400.6002	412.1638	431.7797	445.92	449.4777	440.7846	428.5517	410.0165	382.7669	347.3257	308.3554	274.0448	244.7607	207.1926	174.929	149.0261	124.6201	100.5198	78.1482	59.1854	45.4317	31.9818	23.9465	15.1993	4.0909	1.3884	1.0815	0	0	0	0	0	0	0	0	0	0	0	0	0	0
436	762.1239	677.957	620.9615	573.882	541.5386	491.0004	450.0237	404.8955	385.4544	377.1064	372.1753	395.8292	400.802	429.0171	440.0064	453.0675	457.6105	455.0527	438.504	419.729	390.8638	362.1764	319.4508	282.6804	252.1285	218.695	181.8629	156.7332	131.9422	107.7251	83.0513	65.8357	48.9982	36.1226	26.3452	18.3024	8.6014	2.329	1.6328	0.0491	0	0	0	0	0	0	0	0	0	0	0	0	0
438	727.8039	684.9532	653.7654	588.5608	552.7964	507.9241	456.6289	414.6777	397.6191	377.09	381.1076	392.9797	407.2987	428.2651	449.2811	456.2876	463.3686	463.3955	452.6123	433.2812	404.1633	370.9158	329.8875	292.7683	257.9158	228.4463	189.1171	164.0397	138.5833	113.7361	88.5862	68.9126	54.5128	42.0701	30.3995	20.9217	11.6786	3.2858	1.213	0.0989	0	0	0	0	0	0	0	0	0	0	0	0	0
440	742.2821	695.6935	657.1015	601.3381	552.9895	505.6322	470.6994	428.147	401.285	386.2879	390.5815	397.4715	419.8132	435.8046	453.0077	464.6244	473.6026	472.8381	459.4141	439.5922	415.1014	379.7581	339.4234	301.7454	269.472	236.6158	201.8526	170.0118	144.3593	118.7126	94.1985	75.7374	59.5451	46.0455	32.3199	25.1501	15.3812	6.678	0.7867	0.1495	0	0	0	0	0	0	0	0	0	0	0	0	0
442	758.3079	722.6463	656.9058	599.3827	564.9268	520.4438	480.9058	434.9154	401.9363	393.4006	384.5446	400.9038	416.7049	436.1237	459.8794	472.1842	477.5125	481.3118	474.341	447.0284	423.9883	389.0951	348.9717	308.2578	277.8367	243.8752	208.2517	175.9226	150.0936	122.3766	99.811	78.5192	64.753	50.6381	37.5882	27.0166	19.5456	11.4367	0.3535	0.7531	0.6973	0	0	0	0	0	0	0	0	0	0	0	0
444	754.5999	704.503	652.8866	613.2432	587.2884	528.4814	477.5008	437.9644	406.9381	394.3831	390.8317	403.6213	425.8809	440.9715	457.5411	478.6353	484.6507	485.745	480.453	460.4643	432.4561	396.5915	356.2202	320.0537	284.9097	253.7288	218.7603	181.9008	154.6115	126.0802	105.4935	83.8727	68.7063	54.744	40.2018	30.625	22.5158	14.4209	5.4192	1.9209	1.4041	0	0	0	0	0	0	0	0	0	0	0	0
446	789.827	722.5039	653.0815	628.2	583.1638	536.4713	491.9814	449.9859	418.2353	398.0185	389.7944	408.055	427.6063	445.4109	463.3538	480.2864	491.1835	498.3595	489.9216	469.5653	440.5922	403.5836	364.8734	325.1061	293.081	261.7456	222.434	188.0683	158.6347	132.0313	110.561	89.3512	74.2572	59.9432	46.943	33.2498	26.1639	18.0127	9.7576	3.1065	2.1217	0.1863	0	0	0	0	0	0	0	0	0	0	0
448	784.3857	737.4738	667.7499	636.6847	598.5805	532.8459	500.7812	444.2606	422.6868	403.2616	403.8349	410.481	425.4292	445.6105	466.8293	481.1774	495.6692	499.3434	489.4341	476.8339	446.7599	412.0159	372.0795	332.908	299.9552	265.2857	232.7421	196.3212	162.8062	138.1476	114.2411	94.9642	78.8684	64.4385	51.2969	38.1928	27.8935	21.318	12.7561	4.3121	1.8647	0.3755	0	0	0	0	0	0	0	0	0	0	0
450	774.8781	745.0672	678.3412	619.6499	606.9187	544.69	494.8418	451.6245	430.0092	408.2803	410.8027	414.7129	422.809	445.2267	462.7772	488.4662	501.3691	505.1892	496.8753	480.5322	452.8587	418.1554	376.8561	342.2977	304.2295	274.2476	238.3162	201.3287	167.0249	142.8154	117.9664	100.6573	83.487	67.8594	54.7338	42.521	30.8032	24.3271	16.4986	8.3525	1.6034	0.5677	0	0	0	0	0	0	0	0	0	0	0
452	794.0788	737.2087	665.8989	647.5986	606.3099	553.3128	507.6125	453.2372	431.3268	414.6235	412.3508	420.1549	435.5222	447.6152	467.206	489.228	501.6433	506.5843	500.1416	486.0172	461.6529	424.104	384.2727	345.1949	311.9188	278.9366	246.2742	209.4715	171.3702	146.8361	123.9407	106.1455	88.2107	74.4237	59.9601	46.6282	36.1875	26.2962	20.2985	11.3821	1.3384	1.3886	0.9576	0	0	0	0	0	0	0	0	0	0
454	800.1443	714.7419	672.6537	642.2642	608.3126	562.1344	502.4632	464.4138	437.1233	411.5575	410.5785	416.2979	432.4785	451.8665	470.1006	485.3156	503.7109	510.376	505.9254	489.8111	467.4802	427.0504	392.1712	353.578	314.8564	285.6341	251.8366	215.0226	179.9845	150.9047	130.0002	111.0383	93.0027	77.2229	63.6586	50.5043	38.2637	29.8816	23.3253	15.7904	8.6454	2.8534	1.931	0	0	0	0	0	0	0	0	0	0
456	777.2657	738.0887	680.4012	634.4314	607.3538	558.9991	519.4907	470.5726	439.6419	415.9225	408.6976	418.7044	430.4436	452.5427	465.9443	484.2848	504.4145	510.4558	506.826	487.898	467.2777	434.7089	393.1075	358.2704	321.1314	286.7943	254.3281	219.6938	186.0314	155.2611	135.6726	116.1774	98.0137	78.6617	66.7967	54.8872	43.2885	32.9874	26.1802	18.6535	9.8584	4.3487	2.9247	0.3651	0	0	0	0	0	0	0	0	0
458	780.5714	726.2137	695.4114	650.1676	614.3247	568.2947	510.4352	468.0363	441.944	420.1663	410.2294	419.4782	433.4566	452.4579	472.0986	487.1285	506.7888	514.334	508.1305	493.6142	471.4499	434.928	397.5964	358.777	324.566	295.7633	259.6044	226.1075	192.0324	159.9189	140.7049	120.387	101.4498	82.4693	71.4341	58.28	46.2483	36.3842	28.1798	21.0121	13.648	5.8814	2.8239	0.7384	0	0	0	0	0	0	0	0	0
460	773.6803	735.3465	678.3569	654.6596	623.9293	574.0546	522.9145	475.0129	454.9095	424.3386	418.6985	421.1047	432.3027	452.5249	473.936	487.6307	506.4768	510.3673	513.81	498.3879	476.6825	440.4237	397.4826	360.8475	332.0051	297.8611	264.8049	229.726	198.1421	166.6632	144.0015	123.4541	104.0159	86.3427	76.0585	61.5361	50.2635	39.3798	31.043	24.0149	16.5068	9.7444	2.7203	1.1199	0	0	0	0	0	0	0	0	0
462	764.0619	749.1226	690.0216	644.104	616.2583	579.571	516.5044	481.5002	448.9376	429.5064	416.6767	424.0011	437.3586	448.4331	467.073	491.9414	501.7313	515.0108	509.7311	499.0667	476.1785	438.9664	395.9498	367.3611	335.6027	301.2935	267.0998	234.2799	201.2245	172.247	147.4991	126.6995	106.1011	90.3808	76.974	65.8344	54.4656	43.9045	33.4342	25.9395	20.2196	12.1476	2.6165	1.9791	0.9961	0	0	0	0	0	0	0	0
464	742.953	726.8125	681.3735	639.4676	623.9909	569.1935	534.3981	482.6157	449.1842	429.8999	426.5113	426.2071	432.4514	449.365	465.9495	485.9654	506.7155	513.6675	512.6147	494.5305	476.2688	442.7639	404.1555	368.1854	337.426	306.428	271.2602	240.8465	204.8883	176.0612	151.0395	129.3571	108.2065	94.4914	80.057	70.8186	56.9902	47.8405	37.182	29.736	23.0652	15.6869	8.3822	3.332	2.016	0	0	0	0	0	0	0	0
466	728.323	730.6837	693.4025	638.9878	618.5561	567.501	530.8682	479.9609	451.2816	429.6254	423.1937	422.9556	432.2764	444.72	467.403	485.4891	498.1905	511.28	506.4776	499.1641	473.9505	441.7325	405.9216	369.9721	340.5475	307.6081	276.5541	242.1206	209.7792	182.8629	154.6703	131.7639	112.5762	97.7283	83.2172	73.2644	60.9378	50.7121	41.373	31.9803	24.9948	18.4857	11.0815	4.7177	3.0604	0.6668	0	0	0	0	0	0	0
468	713.3698	711.5347	687.0419	651.808	619.3505	567.4571	530.0867	480.9415	452.6401	433.2613	425.9764	422.7931	430.9521	446.7449	460.5236	482.5572	498.7566	510.0897	504.3396	488.4695	474.144	444.3395	408.1333	370.3687	340.1986	310.4671	280.647	245.6049	210.3295	182.7276	158.6501	134.2319	117.0561	99.0688	86.4567	75.6665	63.0989	53.1466	43.3423	34.8746	27.4431	21.8671	14.4138	6.1374	3.6287	1.3498	0	0	0	0	0	0	0
470	697.858	703.1146	673.0512	627.0532	619.8301	579.2201	525.502	484.9158	458.3258	424.8526	418.6545	424.3399	431.0888	438.045	456.3938	478.5276	493.0623	502.3379	503.527	491.9201	474.1704	443.6169	408.3225	369.5427	339.9874	312.8488	279.947	247.1831	213.6546	189.1115	163.6594	136.7211	119.6164	100.413	89.7506	77.9302	66.7215	55.8343	46.3598	37.7764	29.7344	23.5643	17.4586	10.6507	4.2098	2.0492	0	0	0	0	0	0	0
472	683.4565	703.686	666.8937	654.6905	611.2904	578.7034	529.4651	481.4154	459.2111	429.7346	420.526	422.8195	424.69	435.5847	451.4638	471.6566	484.9295	498.4902	498.5437	492.3252	471.9665	441.9054	405.4164	369.0822	341.8479	310.3898	283.2022	248.7193	215.2496	189.8333	165.455	139.5628	121.4828	104.1199	93.0131	80.4168	68.9298	60.2945	48.4356	40.0109	31.2183	26.9694	19.9591	13.2777	4.8151	3.2295	1.3637	0	0	0	0	0	0
474	668.3801	683.3615	655.7393	632.4799	611.3468	577.6097	520.3629	486.9119	448.7674	429.7454	415.2816	418.7002	422.2842	428.9978	448.1893	469.9584	481.9883	489.9056	488.4046	479.7157	465.8164	437.5307	405.9092	369.0241	340.6596	314.9754	280.6648	250.8198	218.865	192.3124	168.314	144.7374	123.3538	107.892	95.7094	82.9426	70.9534	62.4971	51.5789	43.3306	33.6872	28.2628	22.5795	15.7501	8.8702	4.9071	2.766	0	0	0	0	0	0
476	652.0192	670.1829	650.5262	626.9438	607.8005	565.6168	520.7399	472.2353	454.1222	427.1988	421.0403	409.6242	416.6122	426.1834	440.3137	462.501	477.421	483.8504	485.2219	476.6688	460.0948	436.5041	399.2254	368.5117	340.8701	309.9859	279.682	250.1396	219.4218	194.3884	172.3426	146.8214	125.1146	111.0005	98.3549	85.4295	72.126	64.2458	54.8411	44.8374	35.3275	29.244	24.0205	18.9859	13.1672	6.6242	4.2031	0.9162	0	0	0	0	0
478	634.4489	655.842	622.6223	624.3637	600.094	562.5495	524.9399	475.6438	449.2745	424.8602	412.7854	410.851	411.0446	421.0773	435.7027	454.9004	466.9075	475.4395	475.7578	471.0534	451.0625	423.7262	394.9555	367.2461	337.5925	311.4553	280.5208	250.4937	223.0801	193.625	173.3183	147.1475	126.7649	113.4854	100.4464	87.1201	74.4299	65.2664	57.378	48.8069	38.9033	32.3696	26.4973	21.1342	14.756	8.3764	4.9878	1.8542	0	0	0	0	0
480	616.3082	640.991	635.029	625.0399	602.0669	565.2582	530.0832	476.2858	448.3496	425.2208	410.6565	407.1818	404.5044	417.1002	429.6364	446.1357	457.6463	465.2729	472.6363	464.8113	451.9311	423.7986	390.8305	363.0929	338.0485	310.5289	282.9354	250.6197	222.207	197.6945	174.8898	152.3161	131.3074	115.2456	102.0546	88.499	76.7683	68.8061	60.3867	49.7881	41.0959	33.8595	29.1168	23.824	18.0126	10.9969	5.7898	2.8141	0	0	0	0	0
482	596.3342	624.3048	629.2835	606.3512	594.4014	558.6259	518.8264	465.3216	451.0417	418.656	405.7242	401.9891	400.0816	408.8381	425.8621	437.9203	450.9716	462.7501	460.6059	462.3235	442.8525	416.8717	390.5866	359.2567	335.3559	308.3275	282.7833	250.5762	224.4261	196.6588	174.4687	153.918	134.6275	116.7736	103.4584	89.5514	78.9772	69.6301	62.1285	51.5428	43.3027	35.2282	29.5987	25.2131	19.6416	13.1082	6.5956	3.7891	1.1024	0	0	0	0
484	575.9076	607.2118	628.7506	607.1992	580.876	564.7317	513.0869	471.4948	439.2383	417.092	407.4577	398.5708	405.714	406.0088	418.2908	430.6909	441.5299	457.5354	455.5202	449.2846	433.1893	414.3159	384.2096	354.9731	333.7514	309.5544	280.899	249.9273	224.3298	197.4151	178.746	155.8014	138.0244	118.3098	104.7208	90.6079	81.2145	70.9233	64.1726	54.4137	45.9013	36.4948	30.9607	27.1556	21.8993	15.0285	9.4497	4.783	2.2256	0	0	0	0
486	554.9198	589.5961	609.8464	604.613	587.5502	546.3962	505.1704	472.7417	441.6445	407.6107	401.9021	399.9325	400.8898	398.1614	410.2445	423.2984	437.7435	448.5502	444.5564	446.1737	434.3735	411.1743	379.8626	353.3574	329.6652	303.9432	280.0995	250.713	220.5499	199.6529	178.6077	157.3161	140.7159	119.8306	105.8923	92.9387	82.9896	72.2143	63.787	54.3413	46.1233	38.935	31.4718	27.9691	23.7795	17.7227	11.9709	5.7939	3.3692	0.4331	0	0	0
488	533.3894	571.4739	590.4089	603.8047	575.9401	543.3198	503.6527	474.2549	438.5655	408.916	399.399	389.6853	395.7697	393.2264	407.2385	424.6413	431.9669	439.3322	439.5396	435.9058	421.5042	406.4328	374.4633	346.9791	327.9654	301.8862	278.9891	249.7829	221.9914	201.7463	179.6489	157.9078	141.9861	123.7263	107.0467	95.2786	83.8106	73.503	67.1617	57.7305	49.3124	41.3306	33.5872	29.2971	25.3447	19.2634	13.4987	6.821	3.2827	0.874	0	0	0
490	511.4356	552.9697	570.5677	575.2626	572.1104	527.9723	510.3479	461.3847	426.8456	407.3654	392.6364	387.4116	387.4571	389.7844	399.3256	411.1318	420.2594	431.7408	431.5226	428.7691	415.7847	395.582	371.5766	347.0657	327.4642	301.9603	274.8388	248.105	223.0224	197.858	180.7849	158.3176	142.5206	125.5822	108.2051	96.6834	84.633	74.8031	64.6674	59.2014	51.6562	43.3946	35.2725	29.815	26.2966	21.4088	15.7172	10.1644	3.1942	1.3225	0	0	0
492	489.5346	532.729	550.8598	564.6261	563.3834	540.6487	490.3721	455.7489	435.1311	409.3723	388.5716	380.8751	378.7563	377.5125	392.8951	401.5342	415.9372	419.7306	427.9523	423.9994	409.8833	390.4936	360.6428	336.072	321.7802	301.508	274.4926	248.9514	223.4311	199.649	180.7194	158.2529	142.8736	127.0881	109.4714	97.7058	86.1099	76.1869	65.8998	61.3503	51.6978	44.7088	36.9329	32.0634	27.7029	23.2985	17.2625	12.2348	3.1066	2.1944	1.0018	0	0
494	467.1625	510.1474	530.7028	571.6538	554.3337	512.0917	490.1864	460.6788	425.1541	410.1529	386.5196	381.5537	380.5074	377.9026	382.1382	394.5481	406.3615	415.0716	418.1994	414.086	397.6947	385.9429	358.5488	337.2272	315.2615	297.3847	273.066	248.5819	220.8736	197.7545	181.2834	160.4397	146.5455	128.041	112.3774	98.7298	87.5996	76.9419	67.144	61.6914	53.5074	46.3383	40.2097	32.1642	28.7942	24.3749	19.6237	14.2471	7.6207	3.5007	2.0229	0	0
496	444.1854	486.9366	539.8115	553.4354	538.8375	516.7459	484.2409	448.985	419.0079	395.2532	382.4565	369.3681	368.0972	367.0597	379.0746	386.0623	400.0155	401.2541	406.8267	400.657	392.1494	377.8335	357.0074	330.2743	311.2162	293.7576	271.3898	244.1679	218.3983	199.4386	178.6129	159.6307	144.2879	127.8665	115.478	99.7253	88.7526	77.3502	68.3792	59.8378	55.3845	47.1493	40.9295	34.265	28.2047	24.9463	20.1724	15.3333	9.2424	4.8302	3.0623	0.6677	0
498	420.6319	498.5608	519.2558	534.6556	546.353	507.1859	477.2919	453.4411	420.5516	393.2309	379.7854	364.5339	362.6047	361.5651	367.6202	380.8669	386.1677	397.5842	396.3772	396.2025	384.9839	372.5421	346.0314	324.1307	310.7507	290.7627	268.0415	241.4498	218.7902	197.5627	179.278	160.8497	146.5502	127.7812	117.2787	100.692	89.2345	77.7298	69.6048	60.3181	56.5359	48.689	43.2848	35.2072	30.1651	26.1989	22.2221	17.3029	11.1523	6.1816	3.6305	1.3472	0
500	435.0647	475.1757	498.2967	515.4944	521.2097	509.0199	477.4744	443.2689	410.2078	389.5646	366.0784	368.82	353.2756	356.4353	360.4349	369.1094	377.1692	383.8036	386.2679	383.2834	380.0883	360.6984	340.2529	322.009	300.5594	285.0221	266.0997	242.5199	216.8366	197.3975	179.3698	158.358	146.2646	131.0119	116.2544	101.6472	89.711	79.0374	70.3128	60.7976	56.8994	49.8263	42.8184	37.2728	30.3851	26.6826	23.1704	18.4133	13.261	9.7357	4.2081	2.0385	0
502	424.4199	451.2244	476.6179	495.8028	510.9915	501.2208	450.0566	425.2824	412.7045	386.2973	369.0832	357.2744	348.8603	348.4324	354.6275	360.6305	364.5709	372.2387	377.8778	375.3865	362.0841	353.2281	333.9555	314.7607	296.1742	280.7659	260.4785	238.246	213.4868	194.9898	177.0338	158.101	143.1384	130.3277	115.6418	101.8983	90.1555	80.3317	69.9352	61.2581	56.3566	51.3377	44.3592	38.4247	31.6173	26.9538	25.154	19.3164	15.256	10.2877	4.7937	3.0113	1.6207
504	409.985	426.8633	454.379	475.7488	500.3588	477.7139	453.3062	416.6344	399.5413	368.8422	352.6487	350.4698	348.5761	338.7848	343.9046	355.0828	355.4036	363.5693	370.0404	366.7881	357.0038	343.408	327.7848	306.1022	288.6626	276.0395	257.611	233.8276	210.5347	191.1527	173.7643	156.7484	141.5701	127.4512	115.6697	104.1224	90.595	80.5624	69.5416	61.7179	53.8934	52.1829	46.2495	39.7455	33.4275	26.8103	24.9135	21.1004	16.5213	12.9583	6.7783	4.2728	3.2685
506	413.0412	402.5753	432.2706	464.8036	481.3596	477.8102	449.0402	409.7495	395.9321	363.4783	348.1594	347.1042	335.0353	331.5743	334.3622	337.8877	343.7412	353.829	354.1851	352.6055	348.5621	332.878	314.3377	300.1955	284.6601	271.4005	255.43	227.5855	207.8609	189.4811	172.4019	154.0926	142.5509	128.6491	115.3225	104.7419	91.1364	80.339	70.1471	62.2497	54.5303	52.2482	46.2646	41.9052	34.9854	27.4253	24.9061	20.8552	17.314	13.5599	9.8598	5.5612	4.9493
508	367.2265	378.2605	420.78	448.6896	462.4986	460.8014	435.5527	410.9364	379.0946	363.8971	343.8121	332.814	326.9372	329.3946	323.9415	329.0946	340.8007	339.7191	348.1069	346.032	338.2883	327.1839	307.2248	292.7698	280.1217	266.406	250.4338	225.3321	203.8563	187.0874	172.0549	149.6663	141.017	128.3292	116.8267	104.6256	92.0746	80.1907	70.8341	62.3662	55.2338	53.8993	46.383	42.1848	36.5878	29.137	24.4	22.7557	19.3228	14.556	10.3542	6.881	6.6687
510	359.0158	365.52	402.1994	432.1631	443.1735	450.0116	431.2214	399.2764	371.4077	353.5647	337.8084	331.6316	320.9153	318.0916	319.7088	321.6628	326.944	331.7639	333.466	333.776	327.1233	316.9792	301.2066	287.4285	277.6651	261.6309	245.9929	224.3185	202.2138	185.0491	169.9885	150.6263	139.514	127.5053	115.5772	103.0759	91.7049	80.0217	71.2722	62.2252	55.9401	50.971	46.9387	43.3693	37.6408	31.029	24.8996	22.4796	20.1173	16.4698	12.7167	8.4911	8.423
512	350.5183	374.9054	383.1305	412.7133	423.3324	429.3554	417.9767	383.0135	363.1595	349.5266	336.3915	320.0023	312.7895	308.8418	308.9722	311.0472	317.9188	322.1025	324.0706	324.4763	321.6299	309.4834	293.1776	278.6113	266.6534	255.87	238.1119	219.6453	199.3699	180.9042	165.7891	148.3698	137.0299	124.838	114.1899	104.2078	91.1641	79.8217	71.1939	62.0604	56.6419	51.0504	48.8069	42.7785	37.5312	32.4379	24.5203	21.5318	20.3411	17.8953	13.0906	10.2342	10.2109
514	341.7829	368.863	363.63	390.3405	403.0386	422.1755	402.0029	387.6396	363.9215	330.8843	324.8468	314.2446	304.9412	301.1985	298.6906	305.6516	309.9992	311.8072	315.1286	318.4424	311.3306	299.8353	285.7762	272.099	261.2362	251.1277	233.5046	216.0088	193.8519	179.4536	163.5767	146.832	135.4914	123.4761	111.8975	102.1065	91.2791	81.8511	71.0996	62.8208	56.9718	51.1209	48.4394	42.8652	38.1179	33.2221	26.4037	20.8759	19.1665	18.1714	14.485	11.8583	11.8313
516	333.0684	352.0467	343.9673	367.7727	393.4993	404.4134	397.3141	371.3629	346.6224	333.2854	318.3018	307.0588	299.197	291.664	292.2955	298.9358	300.2702	303.9072	307.1489	306.7708	302.4532	290.5018	279.974	263.3728	254.5072	246.2541	230.9597	209.3559	191.9892	177.5452	163.2239	144.5993	134.1545	121.7458	111.523	102.1273	92.7688	81.0264	71.0436	63.6328	56.5836	51.2219	47.6991	44.2642	38.326	34.8818	27.7808	20.5548	19.7199	18.0701	15.9301	12.4133	12.385
518	324.3465	313.5608	324.0893	355.4162	378.0986	386.5048	402.0814	364.919	340.6923	328.3117	309.6837	303.2737	290.2172	285.6606	282.2865	294.156	294.4369	297.35	299.473	297.2886	293.9694	282.4073	269.1072	260.6064	249.9214	238.3782	223.0669	207.6571	187.5083	171.1828	158.1364	142.2969	131.5726	119.1661	110.1822	100.887	90.2407	81.2485	71.0239	63.7239	56.2168	51.3522	46.8691	43.4516	39.6573	34.3387	28.7548	19.9671	18.1765	19.4136	16.2314	12.6594	12.6306
520	315.3497	225.7984	308.0853	337.7397	362.2722	368.1196	369.3234	357.5415	336.5245	313.3321	302.6614	292.9316	287.1742	276.1762	279.5708	282.2575	278.9553	284.3268	287.5941	287.4159	282.8303	275.6047	264.6398	250.1848	239.6813	233.6842	219.2186	203.5373	183.8808	169.401	158.4239	141.1225	130.0771	120.6139	107.3799	100.331	89.8883	80.9835	70.9857	63.4102	56.3908	51.4724	46.8177	44.2517	40.2369	34.4312	30.0693	20.4629	16.805	19.3074	16.9541	13.9194	13.8877
522	306.059	224.5053	288.382	319.589	343.717	349.2365	359.9237	344.6561	325.9283	308.917	298.6401	283.589	277.3197	269.4022	268.9118	268.8825	275.152	277.9289	278.8934	278.6193	277.7515	269.6906	256.4005	246.5811	240.2478	227.994	216.9798	196.3949	180.6451	164.4388	152.604	139.7024	127.9676	116.6243	107.2879	98.8604	90.1892	80.5412	72.1901	63.0696	56.551	51.1598	46.7503	43.5516	40.5205	34.9863	30.6792	23.4677	14.8313	17.5323	17.3893	14.5103	14.4772
524	296.4963	223.129	317.9284	300.9903	322.3978	329.8847	345.7053	331.2725	320.2804	302.7583	287.7765	273.489	269.3446	261.6559	261.8782	260.4039	268.172	268.9202	270.8385	270.5184	269.119	259.6026	248.5477	239.4065	229.4657	222.3055	211.4861	194.1665	179.5841	162.5312	148.1278	136.1136	124.4964	115.0874	104.5647	97.2265	89.1896	79.1177	70.9577	62.7062	56.4886	50.6161	46.6702	43.4122	40.1004	35.2102	32.0616	26.6363	14.9356	15.4966	17.8155	14.8608	14.8269
526	286.8579	221.8203	287.5733	282.138	300.7837	317.8851	332.0931	329.3104	314.444	292.3742	283.1221	269.3264	260.8618	251.9679	254.2367	253.38	259.8357	263.3426	262.4717	263.3787	259.5028	252.8191	241.6187	231.9354	224.9981	216.7398	204.3236	189.2691	171.6328	161.76	144.9253	131.4698	122.826	112.7729	104.0277	96.4987	87.228	79.1943	70.4964	62.3621	56.0198	50.0823	46.6087	42.7729	40.4592	35.7609	31.8042	27.3786	16.4651	12.8737	17.3844	15.952	15.9156
528	277.1175	220.5714	300.8683	262.9885	291.0796	306.1836	318.3127	318.1235	306.775	285.6496	274.589	268.4197	259.1233	245.9504	245.3467	248.5764	253.634	254.2643	255.529	255.2625	250.1624	247.39	235.7625	228.5434	219.5535	211.0151	200.3663	184.9967	169.4244	155.9455	143.0606	130.6942	120.2551	111.4781	102.6486	94.4763	85.6209	76.6926	69.5918	62.7859	55.5627	50.0835	46.2838	42.1358	39.6812	35.1285	31.1401	27.8759	18.3975	10.7564	15.6409	15.3632	15.3282
530	267.0716	219.2289	219.6707	255.8749	277.5586	294.1248	304.1265	307.5823	296.7385	281.8325	264.2625	257.0779	247.1143	243.3477	237.9803	239.579	243.2894	246.995	246.4384	249.2287	246.0916	240.8502	227.2703	221.2443	212.8128	209.1946	193.7156	183.3147	164.3069	150.8632	139.7393	128.9259	119.8579	109.0513	102.2279	91.0893	84.2381	76.9983	70.0874	61.3779	55.0786	50.0703	45.3693	41.4713	37.9751	35.9317	32.5727	27.8048	21.1054	9.6919	12.9258	16.3021	16.265
532	256.7598	217.8256	151.3181	268.2661	263.6945	280.0768	289.5801	306.79	286.7338	276.1073	261.4834	249.7127	244.4044	234.1501	235.3627	232.3056	235.9926	238.8755	237.4374	238.6235	237.5988	231.4027	224.3837	212.9541	206.9144	201.0185	187.9075	175.5835	163.1938	149.2091	137.2518	125.8896	116.785	106.1636	98.809	90.8135	81.2417	75.1956	68.4156	60.6609	54.5756	49.4781	44.4271	40.7855	37.0213	34.5916	32.2911	27.492	22.1168	11.2498	10.1562	14.834	14.8003
534	246.14	216.3276	167.9023	260.4127	249.4442	263.9418	274.6255	289.8229	279.3346	264.2524	253.6026	248.4233	238.666	228.4793	227.7018	227.1708	226.3389	232.0797	234.6794	234.5495	228.7041	223.6561	214.3	207.1248	200.8003	194.3884	185.5465	172.8508	156.1313	144.5466	136.1701	123.2155	113.8719	104.8255	96.7354	89.7246	81.3935	74.5156	67.1594	61.0033	54.0454	48.5687	43.7688	40.0721	36.3773	35.1672	32.2269	27.9785	24.1951	17.3905	7.4344	14.1956	14.1633
536	235.3348	214.8459	184.951	240.8666	234.9304	247.5073	260.0747	275.3149	275.123	263.2488	247.9615	237.4152	231.1282	220.6859	219.8361	222.9594	219.9816	223.9896	228.0162	226.1759	222.1847	217.4056	205.8494	201.3878	194.9828	191.1544	181.0556	168.3672	154.3599	143.0209	131.7944	121.771	112.1432	104.0771	95.4851	88.3298	80.0826	74.1797	68.0475	59.3255	52.4206	47.649	43.1052	39.2149	35.7265	33.6852	31.6212	28.2745	24.1425	18.3634	6.6627	11.3564	11.3306
538	224.3235	185.6943	202.4895	247.8669	220.1273	235.1355	246.5743	260.5265	266.3216	254.5858	241.77	229.6577	219.555	218.8336	215.8006	212.371	214.7978	218.9798	214.9727	217.6067	214.6931	208.9946	206.053	196.9908	191.1707	186.7179	177.5588	163.4684	151.859	139.4331	128.9063	117.6898	111.1282	102.643	93.4815	84.9622	78.635	71.7581	67.0565	60.2378	52.7945	46.7168	42.3662	38.2761	35.0673	32.0621	32.2499	28.5647	24.228	20.5638	7.6859	7.3012	7.2846
540	212.9783	204.7822	220.4321	233.058	209.937	220.1144	232.6767	245.3077	254.6948	238.0277	232.8728	223.3648	212.3963	209.417	204.6908	208.0024	211.6577	213.6857	214.1153	209.4705	207.6029	204.1248	198.5031	190.9027	182.9087	182.1544	172.781	161.0886	145.9994	134.3101	126.2862	114.4316	107.7375	98.6297	93.4029	84.9463	77.3005	71.179	64.7823	59.3087	51.2205	45.7469	41.4576	37.302	34.3808	31.533	31.2271	27.6908	24.4398	20.8245	11.3256	2.629	2.623
542	201.7733	196.9557	188.1442	180.1643	224.7942	205.1572	217.907	230.2007	251.3113	241.9525	226.786	218.3767	209.5313	206.2257	200.6545	198.8783	202.5305	204.6478	204.6196	207.4129	206.1612	197.9408	193.3583	184.7262	182.6888	176.5346	166.8396	154.9806	146.6604	134.4863	125.2653	112.6051	105.7198	97.4486	89.5455	83.8171	76.9713	68.2076	63.7025	58.7999	52.9155	45.9899	40.6086	36.7198	33.8426	31.0535	29.6585	28.6413	23.169	20.8797	15.9725	1.3248	1.3218
544	230.0471	175.3253	124.3852	81.1349	217.1221	189.6994	201.6333	214.5786	246.769	236.5704	215.4606	212.0503	209.0483	196.9041	196.299	192.1909	196.2908	197.2672	197.4098	197.3996	195.4349	192.136	185.2635	179.1413	175.6669	171.7282	162.3741	155.0115	140.1534	129.8064	119.9777	109.1175	102.2541	96.6076	87.3898	83.0059	74.8576	69.5054	62.4444	56.9845	52.196	46.4262	39.7179	36.1054	33.4715	30.5471	27.8664	27.6197	23.9954	20.5925	16.2758	3.4952	3.4872
546	280.3075	205.994	137.6798	106.6401	220.0555	173.6474	184.7332	218.3243	233.43	220.8639	218.5418	211.3756	202.0813	196.4952	193.5349	191.6469	192.5474	193.272	191.0686	194.967	191.5583	188.8383	181.9763	176.6746	171.89	168.0681	157.8973	145.826	138.5414	127.7132	116.202	105.8597	101.0181	92.4407	86.0838	80.6061	72.3824	67.2425	61.1381	57.8152	51.0016	45.8936	38.7645	35.637	33.0581	29.9974	27.1141	27.6532	24.1325	21.5336	18.3917	7.475	7.4579
548	266.0108	205.7626	136.8113	132.7878	203.1078	157.0343	197.2625	205.9453	219.5395	216.2895	213.1029	201.6561	195.861	189.7842	186.9157	182.9825	186.1971	184.9986	184.1535	185.6213	184.8068	182.8357	173.245	170.3152	167.8477	161.0478	154.347	145.3236	132.9282	122.5023	115.818	104.5892	96.2553	91.4677	84.1198	78.4863	71.6881	67.0276	61.5482	54.6712	49.6218	44.9229	37.7507	35.2241	32.5129	29.406	26.6076	26.5915	23.95	20.953	18.5376	11.1923	11.1668
550	264.1368	205.4574	150.8574	159.6279	204.3045	179.8421	184.0109	193.1945	205.2376	213.2118	206.9321	196.1101	187.6945	185.0519	180.1321	179.3386	180.1795	179.5312	182.7278	178.5594	181.478	178.4179	172.0377	164.6119	161.5007	158.4602	150.0142	140.2105	131.3812	121.4632	113.2407	103.4568	95.1253	87.5281	83.5272	75.7676	71.4333	65.0747	57.7737	54.592	49.6917	43.5434	38.568	34.7891	31.9431	28.8131	26.0794	25.8869	23.788	21.1627	18.1503	14.1366	14.1044
552	295.0799	205.6595	180.9506	187.6955	193.0032	181.2147	170.8624	179.8268	191.0657	204.9199	195.5791	189.8474	183.1478	178.7945	174.6533	173.2568	176.6987	173.8687	178.1309	174.2871	173.9655	170.6317	165.2193	157.848	155.9306	152.9732	146.2306	135.508	125.6547	119.7845	109.6729	98.4061	95.3663	86.8928	80.3105	74.8201	67.0289	63.0717	59.475	52.8584	49.8314	43.313	39.2419	34.4284	31.4485	28.2871	25.6012	22.6951	22.9488	21.6547	18.2527	15.4719	15.4367
554	262.4406	205.771	182.0756	161.5605	143.723	169.8924	157.2458	165.2144	176.3873	192.4647	193.0848	179.4498	179.7169	171.7037	165.0655	166.5905	169.8686	169.293	169.8598	168.2987	169.9469	167.2863	161.7034	156.9535	153.2083	146.1204	142.3828	133.184	123.7801	113.6774	105.5728	97.3002	91.8809	85.5265	79.3042	71.9181	66.0663	61.8422	56.4209	51.6858	47.3107	42.7753	39.0479	34.0406	30.948	27.7318	25.0965	22.0973	22.8943	20.8937	18.9783	16.7498	16.7117
556	243.1268	223.4263	139.8258	69.2174	9.2224	180.7022	143.2152	150.1596	169.7846	181.7892	185.4475	185.0826	174.5119	163.3515	161.8439	163.0836	161.8837	163.5534	164.1284	166.3332	162.535	156.801	155.3724	148.0273	146.7404	147.0031	138.5287	128.4289	118.9567	113.1821	105.4152	92.9029	90.0544	82.306	77.3468	71.362	66.183	61.3847	54.7734	51.0533	46.7745	42.684	38.1569	34.7167	30.4296	27.2635	24.5029	21.4794	22.107	21.0883	18.649	16.3167	16.2796
558	259.8751	213.7875	134.0939	66.761	39.8446	186.2142	128.7542	149.2609	158.2484	170.7756	184.806	172.4628	170.5653	160.4441	156.3236	157.8164	157.417	157.2218	156.7642	162.1542	158.4498	155.17	147.8522	145.2305	141.9089	139.8223	134.0402	126.4182	116.0719	109.1858	100.7212	92.7461	84.8014	79.0713	74.7538	69.1216	64.0429	57.3656	54.5896	48.7294	44.9537	40.4788	37.6148	34.245	29.8922	26.7781	23.7439	20.8403	20.2741	20.7048	17.7824	15.8743	15.8382
560	247.0732	232.0101	136.3451	67.963	71.4802	167.3561	133.7005	137.3609	146.2943	159.3531	171.7487	165.3444	160.9249	155.2608	149.9352	150.7228	149.8031	151.6615	154.3444	154.0266	150.9863	147	145.0458	139.853	139.2597	134.3826	129.6903	123.5084	115.1465	104.1764	97.2841	88.8953	83.3844	77.8085	71.7358	67.0669	63.5634	57.8597	52.542	48.417	44.6465	40.6879	37.3251	34.6866	29.3241	26.1206	22.9505	20.1716	17.2185	20.1409	18.6161	16.0653	16.0287
562	245.7948	250.2493	138.5964	86.1294	104.133	174.1824	139.5089	125.044	134.266	147.5162	164.5909	163.7504	153.5813	152.779	148.0193	145.8379	145.7327	146.5913	147.2209	149.8691	144.9531	141.6035	140.8366	135.949	131.8447	132.337	125.0122	118.4312	110.7172	100.3077	95.282	86.1011	81.6911	75.1141	70.01	64.0178	60.6887	56.6248	51.1683	47.3387	43.9326	42.0637	36.5866	32.8691	28.7242	25.3567	22.298	19.4727	17.162	18.6326	18.3828	16.3088	16.2716
564	237.8202	214.0899	140.8542	122.0971	137.814	150.2767	145.2847	112.3188	122.1867	135.2743	156.7285	154.6869	151.2558	142.739	139.6523	140.614	142.7338	141.7751	141.5266	139.9845	141.9144	138.6828	135.5086	129.8123	126.9228	125.9154	120.4588	114.0443	103.9643	97.9319	92.1469	84.0484	77.9746	75.0425	68.4769	64.1072	59.4031	57.0948	51.4662	44.8552	42.3436	39.0049	34.6237	33.5447	29.3613	24.559	21.6163	19.0799	17.0964	18.1608	17.3608	15.9327	15.8964
566	204.3304	211.4712	143.2059	130.4879	119.3521	108.9982	128.3111	99.2472	109.7808	133.7916	146.963	154.713	142.1371	138.917	133.3449	135.1842	138.2176	136.1173	136.8565	138.2876	137.1537	134.2726	131.6784	129.2268	125.7804	120.9979	114.8349	110.5652	99.5872	95.1517	88.1597	82.7314	76.964	70.7381	66.417	60.9886	56.8621	53.7088	48.4412	44.6799	40.6316	37.5191	35.7716	32.1448	28.5264	23.7419	21.0876	18.8491	17.0318	15.5161	18.0922	15.7224	15.6866
568	179.0577	235.6905	184.1151	114.5236	55.2803	4.5211	138.2249	85.8037	114.3648	121.0052	136.9277	142.2386	137.8	134.1851	134.7624	129.1012	131.506	133.7062	133.1544	132.0843	130.9467	128.7909	124.9682	121.2707	120.2796	117.8242	114.2641	107.625	98.2209	89.4554	86.6664	79.2992	73.0758	69.5382	63.1767	59.8042	54.2726	51.3824	47.7384	43.2586	39.274	36.78	34.2953	31.1082	26.9219	22.9032	20.8899	18.614	16.9679	15.0586	16.4254	16.1891	16.1522
570	179.1078	202.0709	183.8604	114.5922	55.6211	30.2679	140.1455	96.3742	101.4057	107.7808	126.5261	139.3985	135.644	131.9882	125.5152	127.951	123.9747	125.4125	127.2362	128.3299	128.0664	125.4853	120.5099	119.132	116.8134	114.4181	112.0395	102.8854	97.2126	89.56	84.0006	76.0243	72.4145	67.4089	60.4338	58.419	51.8307	50.1809	45.9759	43.377	38.4771	34.5652	33.3201	30.9885	26.9257	24.94	20.6762	18.5641	16.7874	14.5799	15.7752	15.4497	15.4145
572	195.2316	176.3342	187.7372	117.1722	57.132	56.9691	139.4794	105.4723	88.2086	95.9113	116.007	137.9768	131.4237	125.6416	123.9307	121.0138	121.5974	121.4944	126.0241	123.8522	122.1652	120.9923	118.4641	116.3417	111.4549	110.0068	104.5545	102.0929	93.2589	86.7228	81.1038	73.6882	70.2495	65.7121	61.3875	56.0464	52.3206	47.3195	44.8584	41.9395	39.039	33.3472	32.4469	29.5692	27.5	23.6709	20.4901	18.5436	16.4125	14.11	14.6432	15.206	15.1714
574	186.2781	161.9905	179.3339	119.7731	72.8204	84.6216	140.4768	111.0453	74.5231	85.2065	105.0692	129.0887	120.8777	123.3075	119.9313	119.1326	116.7472	118.8226	116.6332	120.9039	119.5852	116.7868	113.5767	111.3741	106.9097	107.8978	102.0844	97.8201	90.2916	82.6114	79.5388	74.1695	69.2905	62.8492	60.4415	53.6542	49.5919	46.5345	43.3228	39.9104	37.2903	35.3528	31.9794	30.192	26.3653	24.3314	20.2857	18.2906	16.0152	13.6157	11.1646	14.3243	14.2916
576	206.6599	188.1206	167.7105	122.393	103.4523	113.2306	123.6503	114.4966	60.35	74.1018	111.8035	121.3628	121.1163	115.6033	114.2478	116.2242	114.3709	117.7264	117.3704	113.6724	115.1137	110.0311	109.3972	107.125	106.9479	104.0934	98.6457	94.1614	88.0787	80.8055	75.4822	71.3184	66.6423	60.7723	56.3057	53.0782	48.6216	46.5798	42.1165	39.7143	35.2532	32.9309	30.5745	28.5097	26.6062	23.1763	20.0627	17.9061	15.5383	13.0969	10.8607	13.743	13.7117
578	156.892	159.0726	158.5047	125.0321	110.8992	98.0503	88.481	110.0625	45.6918	95.5542	101.0989	113.3185	120.4761	112.9195	114.0787	109.7012	110.0776	111.4867	111.5848	111.5542	110.7222	108.3899	106.2177	103.0905	102.4108	100.1838	95.2034	90.8628	84.3161	77.4954	73.4828	68.1522	62.6212	59.5316	54.7284	50.8548	48.5271	44.7727	42.3537	38.4514	34.8013	32.7701	30.2918	27.9658	24.5478	22.6305	21.2982	17.4989	15.037	12.757	10.5407	12.1853	12.1575
580	141.5546	151.2647	147.621	137.1625	90.4315	50.0196	15.713	115.5947	81.713	84.92	90.0028	104.9582	113.0564	109.4093	107.827	108.6165	107.3027	110.4742	107.9337	107.9545	107.2747	105.5475	102.552	99.3858	100.0974	96.3558	95.7879	87.437	80.9435	76.2082	69.9884	67.5887	62.9851	58.9758	55.485	51.4095	46.1749	42.5268	40.8053	37.2952	35.1609	31.1361	29.0123	26.6207	26.1819	21.925	20.539	17.0693	14.6146	12.5027	10.2047	11.3313	11.3055
582	128.7052	118.792	106.0312	121.3843	80.8307	45.7265	33.4427	107.6436	71.8126	73.9336	80.0624	96.3108	111.7078	103.8012	103.0582	101.8508	102.9658	102.406	103.642	103.6912	101.7335	100.2308	96.6213	96.8291	95.2582	93.2611	90.579	85.6398	79.0197	74.9415	70.0743	63.102	59.5155	55.6401	53.2141	47.9166	45.2491	41.5732	38.2427	35.8579	33.1717	29.913	28.3683	25.6409	25.0601	22.1397	20.1584	16.6221	14.3847	12.2375	9.8557	7.4837	7.4667
584	113.6234	99.0526	115.5749	128.0882	82.0965	46.4347	51.7552	106.7244	84.8926	62.5671	71.3165	87.3428	104.463	102.3714	100.2405	102.4513	98.3515	99.0697	99.3712	99.9812	101.1904	99.1229	94.7357	93.6212	92.1877	90.224	87.8301	83.229	73.7342	73.4254	67.0223	60.0887	58.3353	54.0361	51.2261	47.3618	42.2179	41.5049	38.6668	35.5412	32.1984	30.1787	26.9743	24.957	24.2743	22.1582	19.1787	16.8266	14.1401	11.9097	9.4905	6.5823	5.2244
586	109.5026	98.7411	104.3303	115.7404	83.3484	56.711	70.6419	116.1321	87.566	50.8136	62.2553	87.8082	97.5998	99.5506	99.588	95.3402	96.5254	99.2615	96.6088	99.1186	95.9911	96.0562	91.8723	90.1607	90.1304	89.0653	84.938	80.8765	73.7946	69.0445	65.2769	60.6329	57.2864	52.3068	48.903	47.8785	42.555	39.9133	36.4062	32.2136	31.2756	29.4829	26.9648	25.6313	23.4822	21.5581	19.8772	16.8224	13.8785	11.5638	9.2275	5.6482	1.3222
588	73.2504	78.7974	106.1644	122.2647	84.5864	77.0144	90.0971	104.7601	80.6291	38.6803	70.1022	79.4076	90.469	94.7799	91.1118	94.6766	95.5941	91.0562	92.2907	91.37	93.1772	90.8667	89.2367	88.9177	86.2711	88.2303	83.9193	78.9093	73.2422	68.1688	64.5595	58.5359	55.7761	52.6306	46.7116	44.8941	40.7395	38.1078	34.6651	33.352	31.8195	26.7928	26.2935	24.8098	22.559	20.9117	19.9636	15.9061	13.6002	11.2609	9.0116	4.682	0
590	105.3583	88.1572	101.6464	99.8694	85.8239	78.6633	73.7249	71.3104	78.6364	53.4828	61.7275	70.7255	83.0882	92.8674	91.4387	89.0059	88.615	91.6475	91.9022	90.4824	88.263	87.7335	84.653	85.0958	84.6266	82.6014	77.7856	74.4012	68.3911	63.7118	60.6174	55.8438	54.1067	48.8227	45.5054	42.7994	40.4168	37.7782	34.4334	32.3309	29.4999	28.2877	24.7358	23.6641	22.5558	20.3793	18.7364	16.1077	13.3074	11.0677	8.432	3.6847	0
592	143.9355	90.2374	109.4358	111.2846	97.9318	64.5279	36.5378	11.8873	78.5244	59.3928	53.2763	62.6819	75.7309	87.6331	86.6863	85.5048	87.0004	89.0108	85.5371	87.7184	86.664	85.561	83.6766	82.211	80.5495	78.8191	77.4328	72.353	66.384	63.5257	59.251	56.0636	51.7878	49.2142	45.0775	41.8356	39.0988	36.1453	33.1259	30.3166	28.6918	27.0604	24.3498	24.0303	21.5132	19.252	17.4483	16.4838	13.716	10.9031	7.5003	3.7442	0
594	117.291	82.5081	89.0495	93.5411	113.6171	71.4903	38.696	30.2888	91.6358	62.5871	44.4885	55.0175	68.0605	84.0119	79.1695	84.0445	84.2859	85.5171	81.6362	86.7477	85.0085	80.6647	80.7253	77.6179	78.2263	77.2589	72.4357	71.5955	64.633	60.5915	57.0555	53.1048	49.9137	45.5919	42.989	40.3719	37.6992	33.1813	32.0787	31.1328	27.916	26.7536	23.6259	23.2795	20.2061	19.1303	17.9927	16.1843	14.2438	10.7255	6.9916	0	0
596	96.5269	94.1599	75.2439	101.0226	106.5789	70.1241	52.8066	49.3837	92.9513	64.5756	35.3799	47.0693	67.0036	77.925	82.8412	78.9829	78.6653	81.7424	82.6989	82.278	80.4164	78.4345	78.478	77.5836	76.8032	73.3569	70.038	67.8392	62.9553	57.623	56.1619	50.1542	48.4006	45.6362	42.4072	38.2502	35.5358	33.101	31.9479	29.8644	28.3821	25.4633	22.9857	21.3915	20.256	18.6414	17.1235	14.5806	14.3798	10.5391	7.7563	0	0
598	114.8058	91.8272	68.8992	94.4577	108.7403	79.8123	73.184	69.1994	89.1817	61.7422	25.9387	48.5951	60.5322	71.6022	80.1514	75.1717	75.4121	78.5435	78.5825	78.8896	77.6244	79.5311	74.2109	73.8085	72.4655	72.3621	69.4743	65.1396	60.8856	56.1896	53.3031	48.9412	47.9476	44.4924	41.436	37.708	34.715	32.9461	30.8605	28.6685	26.0863	23.4434	22.5058	21.4601	20.3849	17.4919	17.2625	15.4072	12.8214	11.0217	0	0	0
600	114.3996	44.0948	67.9963	82.7837	113.2599	102.2192	94.2927	89.7265	88.6861	59.562	29.9022	41.8479	53.7905	65.0072	76.2692	74.1171	75.0355	76.9938	76.3401	75.9515	76.049	73.8026	74.6601	72.7463	70.5787	71.9832	68.2447	65.5588	58.0363	54.6829	52.6669	48.35	45.5755	41.6354	40.4457	37.817	33.7834	30.5444	29.1407	27.108	25.4694	25.6186	21.8295	22.3825	19.3798	18.682	16.6703	15.1782	12.9676	12.0635	0	0	0
