Description	ECS-A (clean blank)																																																				
EEM type	"Dilution- & Scatter-corrected, Calibrated Data (ppb QSE)"																																																				
Scan date	10/12/2010 10:19																																																				
Excitation	240-500nm by 5nm																																																				
Emission	290-600nm by 2nm																																																				
Calibration	Michael_Fluoromax4_April08 (07-Apr-2008)																																																				
Slit settings	"5nm Excitation, 5nm Emission"																																																				
Dilution	3																																																				
Row 1	Excitation(nm)																																																				
Col 1	Emission(nm)																																																				
Data	Fluorescence(ppb QSE)																																																				
																																																					
	240	245	250	255	260	265	270	275	280	285	290	295	300	305	310	315	320	325	330	335	340	345	350	355	360	365	370	375	380	385	390	395	400	405	410	415	420	425	430	435	440	445	450	455	460	465	470	475	480	485	490	495	500
290	0	0	0	0	0	0	0	0	0	0	0	0	0	0	0	0	0	0	0	0	0	0	0	0	0	0	0	0	0	0	0	0	0	0	0	0	0	0	0	0	0	0	0	0	0	0	0	0	0	0	0	0	0
292	0	0	0	0	0	0	0.0145	0.381	0	0	0	0	0	0	0	0	0	0	0	0	0	0	0	0	0	0	0	0	0	0	0	0	0	0	0	0	0	0	0	0	0	0	0	0	0	0	0	0	0	0	0	0	0
294	0	0	0	0	0	0.0304	0.0717	0.7538	0	0	0	0	0	0	0	0	0	0	0	0	0	0	0	0	0	0	0	0	0	0	0	0	0	0	0	0	0	0	0	0	0	0	0	0	0	0	0	0	0	0	0	0	0
296	0	0	0	0	0.0487	0.0899	1.1884	1.1168	0	0	0	0	0	0	0	0	0	0	0	0	0	0	0	0	0	0	0	0	0	0	0	0	0	0	0	0	0	0	0	0	0	0	0	0	0	0	0	0	0	0	0	0	0
298	0	0	0	0	0.112	0.1478	2.275	1.4686	0.5754	0	0	0	0	0	0	0	0	0	0	0	0	0	0	0	0	0	0	0	0	0	0	0	0	0	0	0	0	0	0	0	0	0	0	0	0	0	0	0	0	0	0	0	0
300	0	0	0	0	0.1735	1.2963	2.9732	1.8101	1.1349	0	0	0	0	0	0	0	0	0	0	0	0	0	0	0	0	0	0	0	0	0	0	0	0	0	0	0	0	0	0	0	0	0	0	0	0	0	0	0	0	0	0	0	0
302	0	0	0	0	0.237	2.452	3.3507	2.7731	1.7055	0	0	0	0	0	0	0	0	0	0	0	0	0	0	0	0	0	0	0	0	0	0	0	0	0	0	0	0	0	0	0	0	0	0	0	0	0	0	0	0	0	0	0	0
304	0	0	0	0	0.3077	3.6126	3.7296	3.7399	2.2782	0.7071	0	0	0	0	0	0	0	0	0	0	0	0	0	0	0	0	0	0	0	0	0	0	0	0	0	0	0	0	0	0	0	0	0	0	0	0	0	0	0	0	0	0	0
306	0	0	0	0	2.0292	4.7756	4.723	4.5083	2.8515	1.4161	0	0	0	0	0	0	0	0	0	0	0	0	0	0	0	0	0	0	0	0	0	0	0	0	0	0	0	0	0	0	0	0	0	0	0	0	0	0	0	0	0	0	0
308	0	0	0	0	2.8905	5.9394	5.7167	5.0761	3.7897	2.1261	0	0	0	0	0	0	0	0	0	0	0	0	0	0	0	0	0	0	0	0	0	0	0	0	0	0	0	0	0	0	0	0	0	0	0	0	0	0	0	0	0	0	0
310	0	0	0	0.5402	3.2037	6.2328	6.7124	5.6449	4.7296	2.8373	0.8703	0	0	0	0	0	0	0	0	0	0	0	0	0	0	0	0	0	0	0	0	0	0	0	0	0	0	0	0	0	0	0	0	0	0	0	0	0	0	0	0	0	0
312	0	0.2414	0	0.7135	3.9539	6.7987	7.6635	6.5365	5.516	3.5285	1.7319	0	0	0	0	0	0	0	0	0	0	0	0	0	0	0	0	0	0	0	0	0	0	0	0	0	0	0	0	0	0	0	0	0	0	0	0	0	0	0	0	0	0
314	0.1206	0	0	1.4724	3.9483	7.1803	8.6047	7.4188	6.1734	4.5824	2.5846	0	0	0	0	0	0	0	0	0	0	0	0	0	0	0	0	0	0	0	0	0	0	0	0	0	0	0	0	0	0	0	0	0	0	0	0	0	0	0	0	0	0
316	0.0164	1.1229	2.4249	3.9463	5.1134	6.7728	9.7678	8.2641	6.801	5.6069	3.4171	0.9138	0	0	0	0	0	0	0	0	0	0	0	0	0	0	0	0	0	0	0	0	0	0	0	0	0	0	0	0	0	0	0	0	0	0	0	0	0	0	0	0	0
318	3.5718	0	2.3491	3.0883	5.8104	8.328	9.9721	9.0633	7.7467	6.4701	4.2208	1.806	0	0	0	0	0	0	0	0	0	0	0	0	0	0	0	0	0	0	0	0	0	0	0	0	0	0	0	0	0	0	0	0	0	0	0	0	0	0	0	0	0
320	3.3653	2.478	3.0636	3.9423	6.4368	9.2947	10.2841	9.8409	8.6677	7.1914	5.0626	2.6767	0	0	0	0	0	0	0	0	0	0	0	0	0	0	0	0	0	0	0	0	0	0	0	0	0	0	0	0	0	0	0	0	0	0	0	0	0	0	0	0	0
322	5.5944	2.2799	2.5473	5.8242	7.693	8.9967	10.9417	11.2983	9.5196	7.8565	5.8553	3.5093	0.8775	0	0	0	0	0	0	0	0	0	0	0	0	0	0	0	0	0	0	0	0	0	0	0	0	0	0	0	0	0	0	0	0	0	0	0	0	0	0	0	0
324	5.3053	6.3756	5.0626	7.1445	8.1053	10.1591	10.9917	10.7217	10.3374	8.5486	6.5993	4.312	1.7251	0	0	0	0	0	0	0	0	0	0	0	0	0	0	0	0	0	0	0	0	0	0	0	0	0	0	0	0	0	0	0	0	0	0	0	0	0	0	0	0
326	9.1922	5.3269	5.8201	7.3021	9.4151	10.5305	10.9617	12.0827	11.1161	9.2078	7.2921	5.0206	2.5417	0	0	0	0	0	0	0	0	0	0	0	0	0	0	0	0	0	0	0	0	0	0	0	0	0	0	0	0	0	0	0	0	0	0	0	0	0	0	0	0
328	7.9761	5.4025	6.7569	7.4084	10.2763	10.7494	11.9459	12.1923	11.8199	9.8329	7.9517	5.698	3.3262	0.9885	0	0	0	0	0	0	0	0	0	0	0	0	0	0	0	0	0	0	0	0	0	0	0	0	0	0	0	0	0	0	0	0	0	0	0	0	0	0	0
330	9.4338	8.0823	7.5323	8.7023	10.106	11.0507	12.3883	12.4931	12.314	10.4275	8.5239	6.366	4.0791	1.9398	0	0	0	0	0	0	0	0	0	0	0	0	0	0	0	0	0	0	0	0	0	0	0	0	0	0	0	0	0	0	0	0	0	0	0	0	0	0	0
332	11.2227	9.7379	8.3645	9.7732	10.1325	12.2185	12.1566	13.2607	12.8694	10.8735	8.9706	6.948	4.9346	2.8231	0.6304	0	0	0	0	0	0	0	0	0	0	0	0	0	0	0	0	0	0	0	0	0	0	0	0	0	0	0	0	0	0	0	0	0	0	0	0	0	0
334	10.7455	9.7145	8.7247	9.8792	11.7578	12.2368	12.0287	12.84	12.8803	11.6454	9.3736	7.4822	5.7299	3.6487	1.5885	0	0	0	0	0	0	0	0	0	0	0	0	0	0	0	0	0	0	0	0	0	0	0	0	0	0	0	0	0	0	0	0	0	0	0	0	0	0
336	12.2432	9.8936	9.9594	10.6706	11.477	12.8277	12.3416	13.7407	13.0961	12.1009	9.743	8.1469	6.4526	4.4208	2.4873	0.5172	0	0	0	0	0	0	0	0	0	0	0	0	0	0	0	0	0	0	0	0	0	0	0	0	0	0	0	0	0	0	0	0	0	0	0	0	0
338	13.7944	11.6457	10.139	10.9481	11.9439	12.8523	13.3126	13.1524	13.9561	12.4843	10.0808	8.7636	7.1072	5.341	3.3295	1.0917	0.2449	0	0	0	0	0	0	0	0	0	0	0	0	0	0	0	0	0	0	0	0	0	0	0	0	0	0	0	0	0	0	0	0	0	0	0	0
340	15.5868	14.0153	11.3563	11.9022	13.1552	12.9118	13.6571	13.6302	13.8732	12.7338	11.1768	9.3249	7.7073	6.1941	4.1133	2.3088	1.0122	0	0	0	0	0	0	0	0	0	0	0	0	0	0	0	0	0	0	0	0	0	0	0	0	0	0	0	0	0	0	0	0	0	0	0	0
342	17.4752	12.3789	13.2507	13.0458	12.7163	13.8163	13.9924	14.0023	13.9344	13.4205	11.91	9.8846	8.4848	6.9519	4.8652	3.463	1.6291	0.3334	0	0	0	0	0	0	0	0	0	0	0	0	0	0	0	0	0	0	0	0	0	0	0	0	0	0	0	0	0	0	0	0	0	0	0
344	17.6726	15.0591	12.3709	13.1278	14.1488	14.3935	15.0828	14.489	14.4836	13.724	12.1573	10.3975	9.206	7.5925	6.0673	4.5486	2.7651	1.4036	0	0	0	0	0	0	0	0	0	0	0	0	0	0	0	0	0	0	0	0	0	0	0	0	0	0	0	0	0	0	0	0	0	0	0
346	19.3781	14.936	15.8153	14.7171	14.5945	14.4389	14.3701	15.2079	15.4655	14.3857	13.0688	11.2573	9.8969	8.2055	7.2105	5.5801	3.7797	2.0153	0.459	0	0	0	0	0	0	0	0	0	0	0	0	0	0	0	0	0	0	0	0	0	0	0	0	0	0	0	0	0	0	0	0	0	0
348	21.7995	18.9494	16.6388	15.476	15.9662	15.3097	15.7205	15.7395	15.5544	15.0555	14.0642	12.3872	10.5647	9.2703	8.2285	6.5663	4.7477	3.2099	1.705	0	0	0	0	0	0	0	0	0	0	0	0	0	0	0	0	0	0	0	0	0	0	0	0	0	0	0	0	0	0	0	0	0	0
350	20.3605	20.0746	17.234	16.0305	15.7411	16.3822	16.623	15.6233	15.9981	15.5209	14.421	13.3872	11.1858	10.2709	9.1113	7.4343	5.662	4.18	2.4854	1.0069	0	0	0	0	0	0	0	0	0	0	0	0	0	0	0	0	0	0	0	0	0	0	0	0	0	0	0	0	0	0	0	0	0
352	26.2557	21.6474	19.4035	17.3586	16.6307	16.8297	16.8082	16.4489	16.355	15.9417	15.4357	14.2176	12.7799	11.2093	9.9392	8.2499	6.5236	4.8002	3.5413	1.9646	0	0.1021	0.1159	0	0	0	0	0	0	0	0	0	0	0	0	0	0	0	0	0	0	0	0	0	0	0	0	0	0	0	0	0	0
354	27.4481	22.6693	19.8605	19.2565	18.2013	17.2951	17.3753	17.3856	17.2673	17.0913	16.0075	15.246	13.7105	12.0836	10.6524	9.0119	7.6684	6.1239	4.4039	2.7969	0.9804	0.2982	0.2256	0	0	0	0	0	0	0	0	0	0	0	0	0	0	0	0	0	0	0	0	0	0	0	0	0	0	0	0	0	0
356	28.3165	23.8012	21.027	20.0794	18.4609	18.1403	17.9612	17.8335	17.683	16.9814	16.8526	16.1345	14.788	12.9381	11.6789	10.4115	9.0892	7.3944	5.6456	3.576	1.981	0.485	0.3302	0.0205	0	0	0	0	0	0	0	0	0	0	0	0	0	0	0	0	0	0	0	0	0	0	0	0	0	0	0	0	0
358	28.9283	26.8224	22.3665	21.2271	20.6261	19.1533	18.6763	18.5787	18.1879	18.2512	17.6114	16.9229	15.9452	14.5882	13.0081	11.7738	10.4464	8.626	6.6005	4.6746	2.9552	0.6645	0.2633	0.0401	0	0	0	0	0	0	0	0	0	0	0	0	0	0	0	0	0	0	0	0	0	0	0	0	0	0	0	0	0
360	30.7921	28.4396	23.9705	22.6696	21.0338	19.8691	19.1766	19.7931	19.1686	18.926	18.5077	17.9841	17.4486	15.7348	14.2697	13.0464	11.7372	9.798	7.9113	5.9744	3.6604	1.9076	0.199	0.0588	0	0	0	0	0	0	0	0	0	0	0	0	0	0	0	0	0	0	0	0	0	0	0	0	0	0	0	0	0
362	31.5475	29.4205	26.4017	24.0761	22.2038	21.5065	20.6934	19.9059	20.0718	19.5708	19.4067	19.3478	18.4316	17.4518	15.5731	14.3421	12.8963	11.1221	9.2233	7.2189	4.6662	2.6968	0.1383	0.213	0.1788	0	0	0	0	0	0	0	0	0	0	0	0	0	0	0	0	0	0	0	0	0	0	0	0	0	0	0	0
364	37.0203	30.4565	28.5741	25.9181	22.9669	22.5971	21.5467	20.9154	21.3451	21.1727	21.174	20.5034	19.5359	18.7184	17.3282	15.5922	14.0144	12.6667	10.4915	8.0281	5.8308	3.6626	1.583	0.4959	0.352	0	0	0	0	0	0	0	0	0	0	0	0	0	0	0	0	0	0	0	0	0	0	0	0	0	0	0	0
366	39.625	34.7803	30.6485	27.6453	25.1054	23.8508	22.68	22.1228	22.1555	22.2844	21.9695	21.5453	20.9845	20.1871	18.8812	16.8104	15.3654	14.1701	11.7258	9.2213	6.6363	4.5116	2.6357	0.7704	0.52	0.0692	0	0	0	0	0	0	0	0	0	0	0	0	0	0	0	0	0	0	0	0	0	0	0	0	0	0	0
368	41.6249	36.463	32.817	28.7418	27.2538	25.2023	23.7741	23.2439	23.3752	23.1973	23.0799	23.0233	22.3341	21.6222	19.9065	18.0001	16.813	15.3463	12.907	10.384	7.931	5.3573	3.4162	1.0372	0.5014	0.1364	0	0	0	0	0	0	0	0	0	0	0	0	0	0	0	0	0	0	0	0	0	0	0	0	0	0	0
370	40.4576	38.7121	35.1357	30.7449	28.6736	26.4659	25.2003	24.4303	24.418	23.8652	24.596	24.182	23.681	22.8456	21.7384	20.2916	18.2128	16.4828	14.0055	11.5094	9.002	6.4758	4.2864	2.0632	0.4831	0.2016	0	0	0	0	0	0	0	0	0	0	0	0	0	0	0	0	0	0	0	0	0	0	0	0	0	0	0
372	48.3177	42.3721	36.4509	33.1731	29.3165	27.4173	26.5304	25.7459	25.5013	25.6362	25.9524	25.5357	25.4059	24.6664	23.3189	21.9007	19.666	17.6264	15.1441	12.9337	10.3254	7.3706	5.0622	3.0918	0.4676	0.3889	0.2212	0	0	0	0	0	0	0	0	0	0	0	0	0	0	0	0	0	0	0	0	0	0	0	0	0	0
374	50.8937	44.1391	38.9202	35.4525	32.2657	29.6303	27.8195	27.0474	26.8715	27.2148	27.0343	27.0964	26.7173	25.691	24.7371	23.4251	21.0881	18.996	16.8002	14.5978	11.6219	8.7915	5.9756	3.9381	1.7522	0.6939	0.4379	0	0	0	0	0	0	0	0	0	0	0	0	0	0	0	0	0	0	0	0	0	0	0	0	0	0
376	53.1105	47.518	40.9835	37.0799	33.6698	31.0682	29.0995	28.2577	27.557	28.3575	28.0256	28.4931	28.4518	27.4466	27.0007	25.0298	22.6474	20.5881	18.4059	15.9524	12.8803	9.67	6.9722	4.7438	2.5652	0.9919	0.6497	0.1141	0	0	0	0	0	0	0	0	0	0	0	0	0	0	0	0	0	0	0	0	0	0	0	0	0
378	57.1769	49.7013	44.8165	39.2102	35.6133	32.9205	31.3568	29.8809	29.3584	29.6357	29.7729	30.5372	30.1369	29.7724	28.4287	26.687	24.4326	22.1228	19.9563	17.2596	14.0967	11.0415	8.3021	5.6194	3.5724	1.282	0.6899	0.2254	0	0	0	0	0	0	0	0	0	0	0	0	0	0	0	0	0	0	0	0	0	0	0	0	0
380	60.7094	54.4758	47.2357	40.9895	37.5324	33.8745	33.0079	31.2769	31.0266	31.1024	31.2073	31.8081	31.6972	31.5329	30.1346	29.0072	26.155	23.6161	21.2079	18.478	15.281	12.3786	9.3788	6.4668	4.2679	2.3503	0.7289	0.334	0	0	0	0	0	0	0	0	0	0	0	0	0	0	0	0	0	0	0	0	0	0	0	0	0
382	61.0235	56.8494	49.9586	43.3473	40.0219	36.2981	34.2634	32.8663	32.1615	32.0161	33.0601	33.3233	33.3704	32.9492	31.5441	30.159	27.7915	25.1833	22.5272	19.6995	16.7208	13.7436	10.6507	7.6106	5.2288	3.3809	0.7703	0.5533	0.2594	0	0	0	0	0	0	0	0	0	0	0	0	0	0	0	0	0	0	0	0	0	0	0	0
384	63.7498	59.7245	51.2121	46.7401	41.9787	37.8587	36.0816	33.7631	33.344	33.4963	34.2229	34.878	34.8903	34.585	33.2147	31.7015	29.899	26.9293	23.8247	20.9007	18.138	15.0873	11.8747	8.8629	6.1622	3.9976	1.8745	0.8797	0.5148	0	0	0	0	0	0	0	0	0	0	0	0	0	0	0	0	0	0	0	0	0	0	0	0
386	68.8093	62.0089	52.4529	48.7246	44.6736	39.2691	36.0881	35.0996	34.1993	34.7777	35.2895	36.3402	36.6553	35.9137	34.8042	33.4574	31.6653	28.5135	25.1947	22.378	19.5714	16.4711	13.1283	10.0024	7.3363	4.9547	2.9194	1.2054	0.7691	0.1937	0	0	0	0	0	0	0	0	0	0	0	0	0	0	0	0	0	0	0	0	0	0	0
388	68.5103	62.2227	56.9692	49.6326	46.0753	41.6916	37.9963	36.5945	35.7443	36.1884	36.8376	37.4445	37.6948	37.6586	36.9334	34.9972	32.6669	30.1109	26.6541	23.9337	21.0385	17.8077	14.426	11.2774	8.3629	5.9006	3.7508	1.5341	0.9605	0.3871	0	0	0	0	0	0	0	0	0	0	0	0	0	0	0	0	0	0	0	0	0	0	0
390	71.6883	68.2299	58.7995	52.5843	47.8367	43.5336	39.5215	38.2003	36.8563	37.2482	38.229	38.9581	39.362	39.1793	38.056	36.6664	34.4655	31.7262	28.6748	25.4899	22.5059	19.1444	15.7239	12.5446	9.7182	6.8623	4.6534	2.5077	1.1517	0.5804	0	0	0	0	0	0	0	0	0	0	0	0	0	0	0	0	0	0	0	0	0	0	0
392	76.0042	70.2538	62.4116	54.1358	49.7878	44.4094	40.6648	38.9109	38.6951	38.8214	38.7686	40.0471	40.7771	40.7825	39.7216	38.537	35.9917	33.3292	30.5473	26.8836	23.7241	20.3581	17.0455	13.9157	10.6125	8.0572	5.5645	3.36	1.3348	0.874	0.3492	0	0	0	0	0	0	0	0	0	0	0	0	0	0	0	0	0	0	0	0	0	0
394	80.7608	72.0413	64.9604	57.7669	51.2066	46.6394	42.1577	39.8659	39.749	39.6651	40.7829	41.8883	42.3091	42.8729	41.6098	40.1059	37.4597	35.2742	32.2733	28.2586	25.0574	21.8135	18.5182	15.2695	12.0174	9.2389	6.4301	4.378	2.3215	1.2681	0.6939	0	0	0	0	0	0	0	0	0	0	0	0	0	0	0	0	0	0	0	0	0	0
396	82.7466	74.7272	66.295	59.705	54.1894	48.5642	44.9407	42.1625	40.7844	40.8933	42.0046	43.1185	44.2531	44.1169	43.1721	41.5533	39.6632	37.1002	33.7359	30.5565	26.5449	23.2864	20.0887	16.6317	13.3022	10.5599	7.6914	5.1146	3.1708	1.6596	1.0358	0.2074	0	0	0	0	0	0	0	0	0	0	0	0	0	0	0	0	0	0	0	0	0
398	83.6976	78.6028	71.2279	62.3502	56.4307	50.8668	46.9841	43.1554	43.0347	42.6047	43.5486	45.1779	45.5661	45.9181	44.9979	43.5067	41.4485	38.8598	35.6659	32.3782	28.0622	24.8721	21.6785	18.0092	14.7519	11.8882	8.7752	5.8942	4.1079	2.0504	1.1705	0.4134	0	0	0	0	0	0	0	0	0	0	0	0	0	0	0	0	0	0	0	0	0
400	93.5323	82.2615	70.9743	65.3166	58.6775	53.0033	48.9723	45.5581	44.0352	43.2728	45.0459	46.357	47.7249	47.9388	46.85	45.4608	43.1877	40.8268	37.3931	34.0717	29.5702	26.4924	23.0724	19.4225	16.1928	12.9291	9.8609	6.8103	4.9046	2.8531	1.3042	0.6179	0	0	0	0	0	0	0	0	0	0	0	0	0	0	0	0	0	0	0	0	0
402	94.7143	86.0465	76.1188	67.806	61.2658	54.4419	48.906	46.5714	45.4046	45.0231	46.7168	47.8036	48.7267	49.5733	49.1584	47.4682	45.5214	42.5261	39.1493	36.1399	32.0855	28.0542	24.4155	20.8798	17.5946	14.4612	11.1645	8.0862	5.5163	3.7518	1.4346	0.8587	0.2884	0	0	0	0	0	0	0	0	0	0	0	0	0	0	0	0	0	0	0	0
404	94.7049	87.3901	77.8761	70.8149	62.9569	56.9936	52.052	48.2281	46.7976	46.4959	47.7347	49.1437	50.3342	50.9073	50.4195	49.3253	46.6771	44.3902	41.1644	38.0453	33.9048	29.6004	25.835	22.3225	18.9825	15.6691	12.2592	9.0246	6.4747	4.5544	2.3174	1.1358	0.5739	0	0	0	0	0	0	0	0	0	0	0	0	0	0	0	0	0	0	0	0
406	97.9999	89.1786	80.5776	74.1462	65.8383	59.4791	53.1763	50.0446	48.821	48.0459	48.7475	50.4433	52.3589	52.4835	52.3955	51.2751	48.9697	46.102	43.2691	39.6816	35.8565	31.1895	27.3365	23.745	20.332	16.8963	13.5161	10.2424	7.2135	5.3331	3.0089	1.4127	0.8579	0.1452	0	0	0	0	0	0	0	0	0	0	0	0	0	0	0	0	0	0	0
408	102.3204	93.7192	84.7069	75.6384	68.7069	61.5048	55.8603	51.5558	49.5738	49.8332	50.738	52.5409	53.4054	54.5119	54.0739	53.121	50.6973	48.3934	45.5165	41.5272	37.7571	33.4721	28.8835	25.2064	21.5889	18.1502	14.8258	11.2658	8.4046	6.0363	4.004	1.6908	0.908	0.29	0	0	0	0	0	0	0	0	0	0	0	0	0	0	0	0	0	0	0
410	105.7104	96.5297	86.7249	77.6527	71.3104	62.6566	56.8915	53.3058	51.3173	50.5917	52.2816	53.7072	54.9843	55.8801	56.138	54.7813	52.9482	50.189	47.4685	43.818	39.7086	35.3767	30.4276	26.5378	22.8432	19.5459	16.0966	12.5602	9.4594	6.877	4.6552	2.5487	0.9579	0.4344	0	0	0	0	0	0	0	0	0	0	0	0	0	0	0	0	0	0	0
412	111.3857	99.9019	91.4492	83.1349	74.4696	65.3972	59.2864	54.8202	52.6951	51.881	52.3934	54.7287	56.8359	57.1493	57.651	56.4103	54.1904	51.8938	48.9344	45.7654	41.6027	37.1324	31.9713	27.9525	24.3873	21.0849	17.366	13.912	10.6126	7.7833	5.5691	3.4122	1.0077	0.6734	0.2817	0	0	0	0	0	0	0	0	0	0	0	0	0	0	0	0	0	0
414	112.9311	104.397	89.5287	83.8443	76.1013	68.6529	60.9646	56.0427	53.8239	53.6801	54.5771	55.7065	57.0336	58.0398	58.4437	57.9029	56.1988	53.937	50.7391	47.3302	43.4199	38.8958	34.291	29.5123	25.9287	22.3481	18.6329	14.8073	11.4965	8.7907	6.4665	4.1149	2.0694	1.0065	0.5627	0	0	0	0	0	0	0	0	0	0	0	0	0	0	0	0	0	0
416	115.291	106.7131	95.4682	86.683	79.0354	69.4377	62.4753	57.9302	55.9342	54.6178	55.0315	57.114	58.7304	59.5116	60.2422	59.6763	57.7319	55.6071	52.7178	48.9867	44.6126	40.7319	36.0304	31.1408	27.5305	23.6628	19.9428	16.26	12.7176	9.9377	7.2133	4.8124	3.0712	1.3418	0.8447	0.1916	0	0	0	0	0	0	0	0	0	0	0	0	0	0	0	0	0
418	121.7224	108.818	97.4591	90.4865	81.3967	72.5035	65.239	59.7464	57.4166	55.8359	56.0812	58.4582	60.0914	61.3083	62.0589	60.9684	59.6765	57.5033	54.5598	51.1914	47.0942	42.7993	37.9316	32.8492	28.9271	25.0382	21.3953	17.5446	13.8584	10.9164	8.072	5.5719	3.7557	1.6815	1.0102	0.3843	0	0	0	0	0	0	0	0	0	0	0	0	0	0	0	0	0
420	120.7539	111.8295	101.221	90.7892	82.767	74.657	67.6694	60.836	58.2721	57.3723	57.5559	58.8752	61.4358	62.328	62.9958	62.5694	61.2581	59.5286	56.515	53.3547	48.7513	44.2359	39.5264	34.5699	30.425	26.6052	22.8524	18.838	15.2909	12.081	9.0207	6.3876	4.5667	2.6389	1.1767	0.5783	0	0	0	0	0	0	0	0	0	0	0	0	0	0	0	0	0
422	122.2312	112.2529	103.4259	93.675	86.3248	74.9736	69.2168	63.6972	59.2605	58.2291	58.5015	60.0859	62.3844	63.5884	64.8085	64.387	63.1786	61.1622	58.469	54.8617	50.8433	46.24	41.4505	36.6185	32.0334	28.1905	24.1315	20.1452	16.1547	13.0311	9.9872	7.1278	5.2619	3.4425	1.3445	0.8641	0.3325	0	0	0	0	0	0	0	0	0	0	0	0	0	0	0	0
424	126.1084	116.9426	105.8097	95.5055	89.3292	80.0815	70.4358	64.0465	60.6936	59.4745	59.6664	61.4116	63.042	64.4767	65.8056	65.726	64.6477	62.6053	60.0544	56.6823	52.5498	48.0896	42.7719	38.3138	33.6539	29.5922	25.4198	21.4619	17.3693	13.9481	10.9453	8.0007	6.0393	3.9893	2.2498	1.2426	0.6673	0	0	0	0	0	0	0	0	0	0	0	0	0	0	0	0
426	130.7667	119.9818	108.5977	98.6823	89.4233	80.1551	72.2159	66.1365	62.5041	60.5518	60.535	62.2751	64.6306	65.4343	66.4453	67.2608	66.4848	64.4554	61.9257	58.2518	54.0797	49.8163	44.6164	39.7582	35.3442	30.9565	26.8021	22.7435	18.623	15.162	11.8486	9.0097	6.8696	4.8477	2.9441	1.6262	1.0059	0.2367	0	0	0	0	0	0	0	0	0	0	0	0	0	0	0
428	134.5456	119.9898	110.2609	100.8413	93.1251	82.987	74.614	66.9228	64.0165	60.9751	61.518	62.5245	64.9555	65.8751	67.637	68.2414	67.2225	65.9435	63.3941	59.9804	56.4257	51.3319	46.268	41.8077	37.0726	32.3866	28.2438	23.9119	19.9215	16.1805	12.8516	9.9745	7.4627	5.5238	3.7445	2.0169	1.2284	0.4765	0	0	0	0	0	0	0	0	0	0	0	0	0	0	0
430	132.459	125.2508	111.4995	102.916	94.2775	83.6407	76.011	69.5334	63.9991	63.8241	62.2571	63.7462	66.4341	67.4667	69.0685	69.5946	68.5253	67.3275	64.6457	61.5857	57.9602	53.3302	47.9416	43.1926	38.7141	33.8342	29.5375	25.0946	21.2365	17.3823	14.0657	10.7885	8.3589	6.3453	4.4886	2.7073	1.4537	0.7194	0	0	0	0	0	0	0	0	0	0	0	0	0	0	0
432	134.3285	124.0112	113.1973	106.6608	96.9662	87.1696	76.8631	70.3859	66.7472	63.6659	63.193	64.8495	66.513	68.317	69.2986	70.5796	70.3922	69.1599	66.4131	63.0831	59.3267	55.0991	49.1605	44.2992	40.0719	35.2602	30.7292	26.4232	22.5116	18.5789	14.9582	11.7297	9.1761	6.9941	5.2559	3.5364	1.6799	1.0299	0.3581	0	0	0	0	0	0	0	0	0	0	0	0	0	0
434	141.009	126.2347	116.2307	106.4457	98.9161	87.5209	79.1156	70.862	66.4891	64.5181	63.7618	65.5028	67.0644	69.8084	70.4411	71.1994	70.9852	70.6366	67.796	64.4531	60.5797	55.5436	50.8684	45.5851	41.7653	36.8233	31.933	27.7658	23.7364	19.7882	16.087	12.6889	10.0102	7.8393	5.9068	4.2899	2.4012	1.4095	0.7201	0	0	0	0	0	0	0	0	0	0	0	0	0	0
436	138.3607	128.8123	116.7818	105.8664	99.367	90.1771	80.405	72.3652	67.9028	64.448	64.8747	66.2831	68.3306	69.7303	71.6657	72.6269	72.6574	71.0107	69.1221	65.2906	61.9407	57.815	52.1657	47.0139	42.8984	38.5224	33.1918	29.0959	25.0063	21.0375	16.9952	13.6233	10.9849	8.5351	6.5985	5.0116	3.2223	1.7954	1.0873	0.2371	0	0	0	0	0	0	0	0	0	0	0	0	0
438	140.8195	131.2353	118.8286	111.5296	100.7868	90.2179	81.8824	73.5055	69.6143	65.6894	65.833	66.607	67.958	69.9836	72.2758	72.9187	72.9722	72.4713	70.3313	66.6176	63.2021	58.6365	53.0917	47.8776	44.3669	39.7469	34.51	30.3364	26.1008	21.992	17.9521	14.6152	11.9175	9.4708	7.27	5.5968	3.7792	2.189	1.2918	0.478	0	0	0	0	0	0	0	0	0	0	0	0	0
440	137.5727	133.685	120.288	111.4151	101.4232	92.7494	83.2569	74.5455	70.4764	67.2671	66.2509	67.4345	69.3475	70.2673	72.5804	74.2184	74.0413	73.2505	71.4555	68.3317	64.359	59.9832	54.4174	49.6358	45.3236	41.0586	35.9805	31.253	26.9833	22.8057	18.9225	15.607	12.753	10.1969	7.9542	6.1943	4.4535	2.8439	1.4994	0.7225	0	0	0	0	0	0	0	0	0	0	0	0	0
442	141.288	131.1733	120.0609	112.2731	104.4817	94.1101	83.1821	75.566	71.3001	67.3815	66.8546	67.3607	69.2224	70.9439	73.0179	74.6842	74.6769	74.3412	72.3104	69.4844	65.4718	60.9415	55.2331	50.5445	46.9001	42.0194	37.4079	32.1557	27.8551	23.5312	19.8908	16.3617	13.6292	11.0341	8.7997	6.8177	5.0671	3.5643	1.7086	1.0088	0.3254	0	0	0	0	0	0	0	0	0	0	0	0
444	143.1698	134.4886	121.0272	113.5746	103.0505	95.4128	84.7918	77.2504	71.9426	68.4895	67.1575	67.837	69.6503	71.1608	73.3656	74.1519	74.632	74.1549	73.5354	70.4978	66.2091	62.029	56.5279	51.7013	47.3588	43.1562	38.5591	33.0684	28.6564	24.2648	20.8714	17.2149	14.4892	11.8544	9.4247	7.4463	5.88	4.1177	2.4072	1.338	0.6553	0	0	0	0	0	0	0	0	0	0	0	0
446	143.5077	133.5789	123.8106	115.7563	107.0608	96.3111	85.4203	77.1536	72.9556	68.6176	66.8194	68.8058	69.2195	72.0183	73.1106	74.3311	76.3021	75.4207	73.6943	70.907	67.2407	62.8943	57.7441	52.5317	48.4734	44.2596	39.3372	34.0134	29.445	25.2938	21.7392	18.0904	15.5795	12.615	10.4052	8.107	6.385	4.7915	3.0195	1.6727	0.9904	0.217	0	0	0	0	0	0	0	0	0	0	0
448	142.9358	135.181	124.2527	115.2809	106.1708	95.7412	88.4538	78.7175	72.855	69.323	67.2779	67.7189	69.7589	71.0318	73.4057	75.0031	75.8919	76.0182	74.5627	71.834	67.9964	63.2319	58.4572	53.3878	49.2997	45.0339	40.5894	35.3122	30.2622	26.3532	22.3519	18.9898	16.1692	13.4791	11.2015	9.0139	6.7787	5.2736	3.7133	2.0135	1.1772	0.4375	0	0	0	0	0	0	0	0	0	0	0
450	143.6437	134.574	124.1401	116.7932	107.5721	96.4172	88.2412	79.5703	74.1592	69.1166	68.1112	68.0032	70.0898	71.5073	73.397	75.3682	76.7835	76.7884	75.1265	72.5028	68.4827	64.4292	59.068	53.8992	50.4672	45.8106	41.132	36.1996	31.0892	27.145	22.972	19.9017	17.0128	14.1798	11.9042	9.7705	7.5549	5.756	4.3185	2.7005	1.3669	0.6615	0	0	0	0	0	0	0	0	0	0	0
452	141.8311	138.1213	122.8377	115.7211	109.4382	98.0516	88.2572	80.0725	73.4079	69.2732	68.2746	68.7305	69.5891	71.384	73.7911	75.1172	76.0395	76.7912	75.5182	73.152	69.6676	64.7203	59.5114	54.6787	50.8281	47.0682	42.4189	36.9745	31.9408	27.817	23.9342	20.8181	17.8765	15.1562	12.8117	10.5067	8.2723	6.4087	4.7514	3.0994	1.5601	0.9264	0.3042	0	0	0	0	0	0	0	0	0	0
454	144.8505	131.2656	125.9408	117.5395	109.2529	98.9081	88.0575	81.436	74.7632	69.9736	68.7455	68.3393	70.019	71.3049	73.5309	75.3618	76.1137	76.3181	75.0668	73.497	69.8805	65.2479	59.7068	55.0729	51.288	47.5528	42.9999	37.7147	32.9487	28.4967	24.91	21.7111	18.7527	16.0165	13.3631	11.1462	8.7949	7.1259	5.441	3.6489	2.3645	1.2329	0.6135	0	0	0	0	0	0	0	0	0	0
456	143.167	135.8506	126.6814	117.6711	110.5104	99.5805	89.3324	81.665	75.0338	69.821	68.2596	68.5914	69.7668	71.0966	73.6493	75.2607	76.5366	76.5244	75.8867	73.3922	70.4917	65.8547	60.1945	55.9151	51.8907	48.3645	43.6278	38.7273	33.6425	29.2296	25.9026	22.6516	19.6719	16.4674	14.2184	11.7111	9.5642	7.5137	5.8468	4.2958	2.7328	1.5467	0.9293	0.171	0	0	0	0	0	0	0	0	0
458	148.5723	137.0744	126.9173	116.5578	109.2624	99.895	90.7013	81.5478	75.0952	70.2111	68.759	68.9345	69.2675	70.8039	72.9467	74.8399	76.2882	76.3162	75.6009	73.3141	70.2037	65.818	60.5153	56.0854	52.3811	48.7617	44.0173	38.9357	34.1102	30.0178	26.8011	23.3796	20.2381	17.033	14.8194	12.4496	10.23	8.1298	6.3733	4.8106	3.262	1.8693	1.0258	0.3459	0	0	0	0	0	0	0	0	0
460	142.9875	133.474	123.9289	116.1329	109.7924	100.4302	90.145	83.1317	76.3193	71.0517	68.7408	69.299	69.1352	70.6111	71.8257	74.2352	75.7591	76.2537	75.6431	74.058	70.011	66.2295	61.3419	56.3158	52.8833	49.4125	44.9171	40.1204	35.1355	30.9144	27.3126	23.8519	20.6184	17.6074	15.5646	13.064	10.8725	8.6828	6.8596	5.191	3.7337	2.3183	1.1243	0.5246	0	0	0	0	0	0	0	0	0
462	141.7397	133.4981	123.6867	118.1416	109.8184	100.204	91.1839	82.0067	75.7705	72.1289	69.2573	68.5684	68.8612	70.4401	72.177	74.4616	75.6636	75.8281	75.7166	73.3135	70.6368	65.9269	61.6267	56.7941	53.0398	49.397	45.163	40.5616	35.868	31.5638	27.8599	24.356	20.9057	18.2104	15.905	13.7283	11.2871	9.2931	7.2487	5.621	4.2046	2.7457	1.226	0.7306	0.2352	0	0	0	0	0	0	0	0
464	138.1869	130.8821	125.7432	117.5642	110.6359	102.7126	90.2023	81.4786	77.0489	71.0743	68.1723	69.0805	68.9591	70.2386	71.9815	73.3287	74.9985	75.9258	74.7462	73.8449	70.9106	66.2914	61.724	56.7633	52.9691	49.8059	45.6329	41.0182	36.1238	32.1673	28.4125	24.7456	21.194	18.823	16.3571	14.3537	11.8287	9.7795	7.761	6.0841	4.5751	3.182	1.9547	0.9645	0.476	0	0	0	0	0	0	0	0
466	136.4476	132.8017	123.7557	118.1466	110.8074	101.7525	92.1864	82.884	76.1077	71.5647	68.367	68.4347	68.9034	69.7511	71.2556	73.2606	74.2565	75.3048	74.7089	72.7844	70.5953	65.9671	61.3267	57.1636	52.8726	50.1252	45.8171	41.3669	36.8869	32.5958	28.9795	25.0848	21.8502	19.3056	16.8208	14.9205	12.4455	10.2471	8.3414	6.5099	4.9255	3.6121	2.249	1.204	0.7226	0.1471	0	0	0	0	0	0	0
468	134.6714	134.277	124.0648	116.022	111.7546	101.157	90.7362	82.7479	76.161	71.3859	68.5968	67.9045	68.4871	68.8738	70.7338	72.7607	73.8007	74.7071	73.7854	72.666	69.5404	66.4287	61.4748	57.3172	53.4687	50.5206	45.9732	41.5853	37.2261	33.3367	29.0278	25.4327	22.5233	19.5056	17.2962	15.3476	12.7343	10.7498	8.9334	6.9587	5.4198	4.1401	2.8246	1.4494	0.8327	0.2979	0	0	0	0	0	0	0
470	132.8131	134.4262	123.8527	115.1512	109.4626	100.0049	91.3211	82.9923	76.519	70.547	67.6011	67.2146	67.6858	67.806	69.9718	71.5027	73.4148	73.3293	73.1116	71.9897	69.4604	65.7807	61.3269	56.5834	53.5919	50.3318	46.4308	42.1066	37.6684	33.7335	29.823	25.7817	22.9085	19.7048	17.7782	15.6609	13.3753	11.3116	9.2968	7.2571	5.7375	4.285	3.2175	1.9176	0.9452	0.4522	0	0	0	0	0	0	0
472	131.2035	131.2148	122.4633	115.2977	110.7261	102.424	90.1676	82.9411	76.7562	71.194	68.7603	67.5084	67.2807	67.7615	68.9038	71.4397	72.2462	73.2201	72.3165	71.4996	68.6141	65.1009	60.6153	57.2306	53.2983	50.506	46.5584	42.0707	37.6725	33.8393	30.1848	26.1943	23.2011	20.2634	18.2613	16.0153	13.9195	11.6453	9.6748	7.7796	6.0345	4.9376	3.428	2.2947	1.0627	0.6535	0.2308	0	0	0	0	0	0
474	129.4943	128.787	122.8672	116.4022	109.1478	97.6465	91.1461	81.7943	75.1519	70.4008	66.7942	66.8762	66.7909	66.5823	68.6894	69.908	71.0735	71.6185	71.0602	70.2546	67.9309	64.7117	59.965	56.7462	52.9194	49.73	46.6632	42.1541	37.5854	33.8911	30.8889	26.6874	23.4927	20.83	18.6509	16.3735	14.0715	11.9805	10.0395	8.1388	6.4268	5.143	3.85	2.8634	1.6482	0.9028	0.4681	0	0	0	0	0	0
476	127.5625	126.875	120.9126	114.7663	106.9713	97.5052	90.025	81.5306	75.2053	69.7826	66.7922	65.6476	65.3615	65.6656	67.1981	68.5485	69.9674	70.6115	70.0258	69.052	66.9184	63.2972	59.3164	55.5088	52.8874	49.9581	46.4107	42.1029	37.716	34.2133	30.9834	26.9316	23.7614	21.2843	19.0269	16.72	14.3435	12.4811	10.4557	8.5661	6.7855	5.3898	4.1602	2.9922	2.1659	1.1579	0.7114	0.173	0	0	0	0	0
478	125.4194	124.7533	118.6961	113.6432	109.5726	99.3729	89.5712	82.054	75.1026	69.3405	66.6251	64.8804	65.0853	64.2	66.1775	67.8051	69.3604	69.8649	69.1101	67.8891	66.0983	62.976	59.312	55.1097	52.6805	49.7113	46.1512	41.8902	37.8327	34.0859	30.7653	26.9955	24.0074	21.6405	19.3239	16.9569	14.6229	12.6299	10.9092	8.7816	7.1411	5.8109	4.4644	3.5062	2.3858	1.4179	0.8865	0.3502	0	0	0	0	0
480	123.193	122.5487	117.0265	113.6912	108.1954	97.9479	89.4934	81.5372	75.7187	69.0525	66.0552	64.2281	63.9337	64.5825	64.9685	66.6666	67.6904	68.7034	68.8268	67.4199	64.9981	62.3759	58.1485	54.8566	52.0647	49.1193	46.1735	41.8888	37.896	34.4029	31.0382	27.4879	24.5564	21.9013	19.557	17.1516	14.9049	13.2334	11.1307	9.1956	7.5155	5.973	4.822	3.8655	2.7889	1.8276	1.0655	0.5315	0	0	0	0	0
482	120.6196	119.9993	113.445	110.2835	105.2199	96.9205	89.0342	80.5811	74.188	68.8819	65.6587	63.6627	63.2588	62.58	64.2808	66.0636	65.851	67.8615	67.212	65.942	63.9484	61.3543	57.8942	54.2816	51.8825	49.0562	45.8385	41.6292	37.9733	34.5029	31.0007	27.6172	25.0343	22.1162	19.7491	17.2898	15.1579	13.1553	11.4871	9.4803	7.9156	6.17	5.1069	4.1493	3.1715	2.1608	1.246	0.7286	0.2232	0	0	0	0
484	117.981	117.3849	112.5686	108.965	102.9503	97.5461	88.5369	80.0664	73.9654	68.4278	65.7619	63.9237	62.9395	62.2796	63.1748	64.6222	65.1233	66.4719	66.2725	65.4504	63.3245	60.698	57.2049	53.8473	51.4361	48.6107	45.4765	41.7739	37.7131	34.3083	31.3839	27.8005	25.0518	22.3312	19.9208	17.4275	15.413	13.3815	11.866	9.8567	8.2151	6.5821	5.3821	4.4047	3.3701	2.4793	1.719	0.9425	0.4506	0	0	0	0
486	115.2538	114.6827	110.8834	108.2064	103.1428	96.0331	86.6179	80.2769	73.4222	68.0826	64.4525	63.0248	61.7543	61.464	62.8458	63.5746	64.7068	65.4179	65.0974	64.3213	62.5387	59.661	56.341	53.1785	51.1453	48.5831	45.1785	41.5293	37.6409	34.4842	31.3752	28.0649	25.471	22.5418	20.0779	17.7002	15.6009	13.6069	11.9557	10.1731	8.3491	6.9712	5.5466	4.4647	3.731	2.8159	1.9933	1.1601	0.6821	0.1479	0	0	0
488	112.4411	111.8956	109.1285	105.3643	103.2765	94.6388	85.9232	77.8905	72.5404	66.9204	64.7632	62.3581	61.3268	60.7337	61.5166	62.4443	63.5916	63.9543	63.8668	62.8899	61.4816	58.911	55.6725	52.1035	50.2446	48.2628	44.7892	41.0764	37.3546	34.2688	31.5995	27.9495	25.6815	22.9061	20.2306	17.9714	15.6529	13.8316	12.2324	10.6058	8.7927	7.2964	5.8227	4.9489	3.873	3.1127	2.3419	1.3812	0.806	0.2984	0	0	0
490	109.5679	109.0484	107.3276	105.9336	101.8051	93.328	86.1953	78.259	72.0898	66.1494	63.791	61.4897	59.8644	58.9667	60.5858	61.7111	62.1757	63.2256	62.7913	62.3995	60.3117	57.9623	54.8707	51.9338	49.6895	47.6628	44.1171	41.0317	37.3867	34.0427	31.3032	28.0241	25.5187	22.7338	20.3828	18.1101	15.7034	14.0581	12.3575	10.8369	8.9577	7.5752	6.0297	5.1061	4.1927	3.4176	2.6411	1.8417	0.932	0.4516	0	0	0
492	106.741	106.6565	105.5861	104.3698	99.4573	92.8112	86.4065	76.592	72.2214	65.8916	62.5342	60.8753	60.0396	58.6218	59.572	59.5863	61.3351	61.9535	62.1347	60.913	59.171	56.5807	54.4267	50.7187	49.5267	47.092	43.9381	40.7915	37.1813	34.0388	31.0238	28.0986	25.9485	23.1159	20.5542	18.1978	15.9611	14.3001	12.5395	11.1861	9.4373	7.8315	6.3915	5.2751	4.5643	3.621	2.8702	2.0759	1.0611	0.6396	0.214	0	0
494	103.8465	104.616	103.7933	101.7162	97.3743	91.2754	85.4939	77.3968	72.1641	64.8464	62.2573	60.0187	58.7666	58.0624	58.3657	58.8482	59.8959	60.77	60.6305	59.7715	58.1849	56.1782	53.0951	50.5324	47.99	46.7291	43.8594	40.4319	37.035	33.9918	31.0537	27.9943	25.7573	23.3709	20.8436	18.2839	16.2209	14.4473	12.7227	11.1248	9.4129	7.9771	6.8138	5.573	4.6733	3.9183	3.177	2.3145	1.6083	0.863	0.4322	0	0
496	100.8533	102.4881	101.5192	99.5311	97.5658	91.53	83.0497	76.5312	69.4596	64.3688	61.7552	58.985	57.3349	56.8064	57.5157	57.515	58.836	59.0355	59.4109	58.3074	57.0471	55.1896	52.0948	49.9683	47.811	46.4312	43.299	40.1058	36.428	33.6668	30.7979	27.9799	25.4423	23.049	21.2847	18.3627	16.4291	14.5413	12.9033	11.2768	9.8271	8.4337	7.0778	5.7455	4.8355	4.1418	3.3653	2.7084	1.8098	1.0903	0.6544	0.1536	0
498	97.7657	100.6943	98.3687	97.2628	94.527	89.9429	83.0671	74.4176	69.8516	64.7963	60.9602	58.7108	56.7507	56.3812	56.3872	56.8535	57.3197	57.9076	57.9249	56.8763	56.4175	53.9545	51.3792	49.15	47.3414	45.4119	42.5391	39.2631	36.167	33.5111	30.7842	27.8693	25.5787	23.3969	21.0662	18.4342	16.535	14.6302	13.081	11.3514	10.0831	8.5235	7.4079	6.1087	4.9725	4.2894	3.6549	2.868	2.1137	1.3212	0.8016	0.31	0
500	96.637	97.1271	95.1568	94.944	94.2835	87.5285	82.1044	73.876	67.9456	62.417	59.7153	57.4606	56.045	54.8924	54.9287	55.4152	56.1031	55.8432	56.1417	55.6729	54.4741	52.5577	50.4881	47.4345	46.313	44.2807	41.8196	39.4899	35.7037	33.1432	30.2812	27.8645	25.3087	23.2649	21.047	18.7257	16.6401	14.8227	13.1708	11.4256	10.1639	8.7924	7.6062	6.2603	5.1942	4.4079	3.8257	3.1189	2.3586	1.7953	0.9513	0.4691	0
502	91.2945	93.4659	92.1705	92.5463	92.6401	84.3651	80.8054	73.542	68.219	61.8723	58.4764	56.245	54.6102	54.2784	53.9169	53.9751	54.9877	54.56	54.5634	54.5643	53.8926	51.8591	48.988	46.9256	45.3894	44.2348	41.5524	38.033	35.2249	32.6985	30.1784	27.6097	25.1936	22.9964	20.8047	18.9026	16.7396	15.0119	13.0763	11.4959	10.1249	9.0173	7.6452	6.6141	5.3281	4.6236	4.0392	3.3998	2.752	2.0656	1.1032	0.6848	0.316
504	95.0053	89.7433	89.4465	90.1008	89.5798	84.0483	78.6245	71.0804	66.1137	61.2449	57.2193	55.2102	53.265	52.3414	52.2591	52.6279	52.4604	53.6766	53.7806	53.4903	51.6914	49.9538	48.0054	45.7447	44.3116	42.9111	40.894	37.9828	34.8721	32.4429	29.5834	27.0539	25.0854	23.1492	20.845	19.0286	16.8384	15.0209	12.9784	11.5659	10.1531	9.3042	7.9469	6.754	5.7581	4.7062	4.242	3.618	2.8321	2.2957	1.4927	0.9586	0.6373
506	95.3053	86.0648	86.7777	87.1939	86.7697	84.2857	76.929	70.5698	65.1803	60.7256	56.0274	53.907	52.8504	51.2489	51.0142	51.5634	51.404	51.8776	51.6442	51.5058	50.2159	49.0113	46.6253	44.701	43.5189	41.9924	40.0335	37.5276	34.4236	31.487	29.2765	26.7728	24.6459	22.7059	21.0826	19.1339	16.9566	14.9542	13.0748	11.649	10.2008	9.3353	8.1476	6.9904	6.0033	4.9447	4.3988	3.798	3.2119	2.5194	1.9199	1.2384	0.965
508	83.4534	82.414	84.0341	84.8739	83.9999	80.7259	75.7127	69.5463	63.9341	59.2398	55.7248	53.1251	51.2944	49.9052	50.0583	49.7344	50.5319	50.2042	50.4457	50.0602	49.7125	47.797	45.4818	43.9148	42.0817	41.6842	39.1454	36.6921	33.5401	31.2366	28.9602	26.3907	24.3278	22.5157	20.7887	18.8478	16.7153	14.901	13.1861	11.6642	10.2595	9.3058	8.2158	7.287	6.2848	5.1719	4.3667	3.9958	3.4255	2.7784	2.1293	1.5251	1.3004
510	81.8573	79.7528	81.3642	82.4914	81.1607	79.8656	73.8941	66.8788	62.7047	57.7153	54.9404	52.227	50.1658	49.1635	48.3253	48.9719	48.0507	48.7662	48.9462	48.6896	47.7538	46.1261	44.2945	42.8794	41.3565	40.4189	37.9952	36.1502	33.013	30.6877	28.4214	26.3137	24.2182	22.1689	20.4357	18.9722	16.8504	14.8435	13.2556	11.6361	10.3172	9.1742	8.1754	7.336	6.4039	5.2313	4.4401	4.0594	3.6094	3.0012	2.3078	1.811	1.6426
512	80.2019	78.0397	78.6178	79.6567	78.2424	76.4618	71.9696	67.0296	60.9459	56.6319	53.0214	51.0208	48.9359	47.6595	47.2061	47.1613	47.2102	48.0245	47.4477	47.0761	46.4424	45.1985	43.421	41.5295	40.3423	39.5846	37.2837	34.8752	32.1549	30.0051	28.2085	25.574	23.724	22.2491	20.3865	18.4108	16.7022	14.7796	13.2384	11.6035	10.3726	9.1962	8.4353	7.5052	6.6073	5.6656	4.5185	3.9792	3.6861	3.2005	2.484	1.9959	1.9914
514	78.4987	80.0406	75.8066	76.3732	75.2567	74.7884	72.0754	66.1207	61.2432	56.0693	52.1549	50.1206	48.0398	46.2743	45.4072	46.103	45.8398	46.8275	46.1765	45.7319	45.5816	43.6789	42.284	40.8337	39.5404	38.5246	36.8857	34.5693	31.8719	29.4556	27.6821	25.5689	23.6065	21.7609	19.9762	18.4962	16.4682	14.964	13.2182	11.6699	10.3773	9.2168	8.4693	7.6331	6.658	5.9242	4.8791	3.9492	3.6492	3.2864	2.7233	2.2303	2.2252
516	76.8088	77.628	72.9888	73.0764	73.9052	72.1791	69.7584	63.4342	58.3889	54.672	51.1285	48.4046	46.6818	45.2924	44.4094	44.695	45.0474	45.1557	44.8936	44.4957	43.7788	42.5526	41.2299	39.701	38.6663	37.9507	36.2803	33.4809	31.2542	28.9175	27.3214	24.8036	23.1219	21.2871	19.808	18.2455	16.5196	14.8743	13.2051	11.7444	10.2875	9.2431	8.5037	7.6686	6.8695	5.8991	5.0652	4.125	3.8281	3.4966	2.8262	2.3933	2.3878
518	75.1263	71.1962	70.156	72.1086	71.4751	69.558	68.4447	62.3327	57.9731	53.7296	50.2064	47.761	45.3719	44.5199	43.4541	43.3196	43.6023	43.5988	43.3906	43.4937	42.5997	41.3688	39.9941	38.4904	37.9062	36.9833	34.9408	32.9043	30.4464	28.3078	26.678	24.2241	22.8426	21.0342	19.4814	17.944	16.4083	14.8198	13.1986	11.7241	10.2011	9.2748	8.4177	7.7172	6.9439	6.1161	5.2336	4.2181	3.6191	3.5733	3.1637	2.4456	2.4401
520	73.3884	66.189	69.5827	69.3462	68.9767	66.8658	65.5139	61.0782	56.0835	51.954	49.1656	46.8821	44.824	42.9508	42.6057	42.1778	42.1922	42.6353	42.3486	42.1536	41.4681	40.2594	38.6888	37.3093	36.8859	36.1069	34.235	32.2336	29.7243	27.6841	25.9451	23.8356	22.4203	20.9113	19.4243	17.7203	16.3508	14.4943	13.1887	11.6485	10.2415	9.3049	8.4098	7.6999	6.9566	6.1694	5.4435	4.1684	3.5969	3.6612	3.263	2.7322	2.726
522	71.5909	64.9281	66.1231	66.5068	66.1707	64.0985	63.3846	58.6097	54.9702	51.0782	47.5354	45.9689	43.7908	41.6446	41.6206	40.9388	40.9989	41.1176	40.9169	40.6712	39.729	38.9294	37.59	36.9429	35.7592	34.9789	33.7343	31.5755	29.415	27.0532	25.4038	23.4115	21.9048	20.4637	18.7453	17.5234	16.003	14.5972	13.004	11.5676	10.2796	9.2637	8.3991	7.8193	7.0577	6.2234	5.5804	4.5431	3.4489	3.6073	3.2357	2.8805	2.874
524	69.7389	63.6247	68.5482	63.5961	63.0568	61.2617	62.127	57.7703	54.1397	49.7132	46.9987	44.6954	42.3352	40.7789	40.3729	40.3914	39.6794	39.7945	39.9211	39.4594	39.1159	37.71	36.5936	35.4239	35.0667	34.2043	32.6282	30.9837	28.4498	26.6146	25.0907	23.0763	21.3318	20.082	18.5758	17.1611	15.693	14.3143	13.0871	11.4821	10.281	9.1845	8.3861	7.6936	7.1907	6.3151	5.6982	4.9553	3.7214	3.4966	3.371	2.9546	2.9478
526	67.88	62.3222	66.2997	60.6565	59.9104	60.6563	59.7517	56.8699	52.5497	48.8895	44.7403	43.7818	41.2265	39.6056	39.2076	38.8236	38.4141	38.8059	38.784	38.5066	37.74	36.7425	35.3591	34.6604	33.9842	33.3955	31.7565	30.349	27.6907	26.1734	24.6029	22.3764	21.1201	19.8861	18.2014	16.9263	15.663	14.3653	12.7777	11.3997	10.2162	9.1075	8.3765	7.6505	7.1832	6.3764	5.7434	5.0736	3.8397	3.1554	3.3418	3.0543	3.0474
528	66.0088	61.0165	64.3759	57.6808	60.0473	58.6474	57.3504	55.1973	51.5988	47.1498	44.2952	42.3553	40.5731	38.7932	37.4213	37.4938	37.6089	37.4435	37.5843	37.271	37.0454	35.5437	34.7172	33.5779	33.0912	32.7208	30.9564	29.3062	26.9715	25.5255	23.7875	22.1466	20.716	19.3665	18.0625	16.7199	15.319	14.0456	12.6804	11.25	10.154	9.1105	8.335	7.6095	7.0666	6.4563	5.7024	5.1829	4.0031	3.115	3.3775	3.082	3.075
530	64.0765	59.663	56.9437	58.6548	57.7603	56.577	54.8801	53.5988	50.0181	46.5198	44.0548	41.2679	39.5643	37.7865	37.1446	37.3484	36.0401	36.4797	36.3434	36.479	35.8009	34.704	33.5347	32.9581	32.212	31.2973	30.5794	28.5842	26.3866	24.944	23.3684	21.4964	20.4454	18.8593	17.5683	16.2985	14.8161	14.1293	12.4447	11.3571	10.0874	9.1109	8.2191	7.5654	6.8888	6.5447	5.9367	5.2779	4.376	3.0456	3.0177	3.1457	3.1385
532	62.093	58.271	50.7564	56.7347	55.4159	54.1636	52.3493	52.2243	49.0709	45.3202	42.9581	40.9043	38.676	36.6177	35.8825	35.6873	35.3857	35.2588	35.4087	35.0447	34.659	33.866	32.5436	31.7973	31.2727	30.8901	29.621	27.9404	26.0489	24.3246	23.0418	21.0171	20.0115	18.6567	17.3947	16.1143	15.1533	13.8399	12.6128	11.2166	10.0179	9.0387	8.0993	7.5192	6.9184	6.4138	5.8301	5.2646	4.4882	3.2369	2.9787	3.0043	2.9974
534	60.0483	56.8311	50.7165	54.2819	53.0051	51.3905	49.7495	50.1718	47.1485	44.4877	41.5893	39.9045	37.2247	35.9784	35.3365	34.8518	34.3148	34.5142	34.532	33.8043	33.6369	32.8784	31.7299	30.9864	30.7672	30.1839	29.0384	27.0995	25.2043	23.6739	21.9985	20.7528	19.4811	18.511	16.9142	15.6521	14.7444	13.6566	12.3996	11.1211	9.9439	8.926	8.0582	7.4698	6.8349	6.4042	5.9834	5.4148	4.6836	3.6216	2.4645	2.9814	2.9746
536	57.9733	55.3724	50.6881	53.4393	50.5549	48.5706	48.241	48.1673	45.8335	42.9332	40.1256	38.4986	36.7301	35.3368	34.0904	34.2447	33.7925	33.5305	32.9145	33.2203	32.4267	32.0994	31.0822	30.5323	29.7886	29.1078	27.8397	26.4161	24.8925	23.2463	21.9376	20.3003	19.0589	17.9095	16.6023	15.524	14.1993	13.2906	12.2373	10.8624	9.8065	8.8128	8.018	7.385	6.751	6.391	6.0163	5.3273	4.7024	4.0356	2.4874	2.7369	2.7307
538	55.8636	51.8315	50.67	52.175	48.0608	47.6131	46.4677	46.1275	45.2619	42.729	39.9472	37.5576	35.5182	34.2934	33.2388	33.1233	32.5759	32.1584	32.0403	32.3487	31.7194	31.0341	30.1388	29.1381	28.6244	28.5483	27.5326	25.9054	24.0212	22.7205	21.2207	19.7946	18.5263	17.4062	16.3938	15.2802	14.1263	12.9629	11.9955	10.8961	9.7838	8.6987	7.9605	7.2815	6.6665	6.0549	5.7814	5.335	4.7541	4.215	2.6741	2.3559	2.3506
540	53.6878	51.7508	50.6355	49.5477	47.7038	45.654	44.6384	44.0261	43.644	41.1629	39.1746	36.7379	34.7862	33.4923	31.9847	31.5696	31.8412	31.7352	31.2664	31.1255	30.2512	30.0191	29.4511	28.4398	28.2244	27.77	26.4767	24.9376	23.4198	21.9738	20.7141	19.3611	18.037	17.0065	15.9901	14.7808	13.9888	12.7634	11.727	10.7489	9.5331	8.5791	7.8625	7.1731	6.5778	5.9929	5.814	5.1848	4.7441	4.1747	3.0599	1.9753	1.9708
542	51.569	49.5769	46.6773	44.0973	48.8458	43.7397	42.6837	41.963	42.8979	40.4697	37.9803	35.9967	34.3526	32.0325	31.3496	31.3322	30.9783	30.6827	30.2656	30.2092	29.7033	29.1663	28.1525	27.8284	27.2275	26.9297	26.0737	24.7091	22.9277	21.5448	20.2008	18.849	17.7557	16.8692	15.6529	14.6809	13.4013	12.5921	11.721	10.5027	9.739	8.5176	7.7779	7.1056	6.5027	5.9415	5.6617	5.3302	4.6875	4.2472	3.5138	1.8014	1.7973
544	56.5537	49.0588	41.4877	35.0073	46.179	41.7546	40.484	39.826	41.3457	39.0425	36.297	34.4543	32.9827	32.188	30.6237	30.1447	29.8887	29.8692	29.4703	29.2505	29.0026	28.269	27.7601	26.9747	26.3451	26.3227	25.1201	24.1894	22.3112	21.2212	19.7368	18.2733	17.6277	16.3646	15.4287	14.3704	13.3431	12.466	11.4178	10.3051	9.5034	8.5014	7.6875	7.0333	6.4277	5.8861	5.6315	5.2208	4.8059	4.248	3.627	2.1066	2.1018
546	58.8472	50.1031	41.4494	36.9406	47.0446	39.6771	38.1879	39.4598	39.6235	38.5495	35.6281	34.0431	31.6861	30.9764	29.3626	29.0807	29.1038	29.0888	28.7124	28.2458	28.185	27.3665	26.7328	26.3238	25.9256	25.4694	24.8799	23.3893	21.825	20.7584	19.0498	18.0338	17.0157	16.0513	14.9021	14.1727	13.0279	12.3452	11.2611	10.3833	9.3446	8.5636	7.5873	6.9573	6.3445	5.8235	5.3388	5.2516	4.7157	4.2934	3.7687	2.4955	2.4898
548	56.0913	49.0324	40.4174	38.8948	43.8757	37.5119	39.0425	37.7807	37.8219	36.6589	35.0478	33.2376	31.3346	29.7918	28.8676	28.6547	28.3547	28.2492	27.4255	27.3878	27.1389	26.6096	25.7596	25.3034	24.7591	24.8546	23.8614	22.616	21.2875	19.9645	19.0124	17.5889	16.6125	15.4638	14.6124	13.7325	12.7512	11.8848	10.8604	10.0498	9.1434	8.3533	7.4776	6.8756	6.2827	5.754	5.2848	5.2882	4.7619	4.3569	3.8017	2.8655	2.859
550	55.3567	47.919	40.9532	40.89	44.8112	39.7789	37.2665	36.0486	35.9645	36.0135	33.5266	32.0304	30.1923	29.1619	27.7957	27.4592	27.3365	27.2809	27.3379	26.8611	26.5155	25.8377	24.9442	24.65	24.3499	23.8645	23.104	22.0231	20.7187	19.5473	18.4488	16.8978	16.0115	15.2221	14.2852	13.5112	12.4922	11.6792	10.7413	9.7775	9.1357	8.0867	7.5532	6.7896	6.2173	5.6464	5.2277	5.0143	4.6649	4.17	3.7935	3.1642	3.157
552	54.2667	46.8969	43.2431	43.0493	42.7811	38.2325	35.5374	34.3126	34.1487	34.371	33.0685	31.2761	29.4206	28.244	27.5631	26.701	26.7232	26.532	25.9776	25.6933	25.6403	25.0461	24.4398	23.9699	23.4816	23.1975	22.1597	21.5235	20.2197	18.9295	17.6488	16.3868	15.8316	14.8918	13.9983	13.1051	12.2529	11.303	10.645	9.6832	9.0578	8.0756	7.2718	6.7181	6.1482	5.5325	5.1821	4.848	4.6847	4.3242	3.8059	3.2824	3.2749
554	54.5504	45.8222	42.433	39.4537	36.8266	37.018	33.7413	32.4605	32.2641	33.292	31.8871	30.3517	28.611	27.3962	27.0197	25.613	25.8212	25.2187	24.9258	25.1529	24.4875	24.4894	23.6471	23.4168	22.8157	22.7893	21.8894	20.8324	19.5628	18.4	17.1296	16.1854	15.1827	14.5109	13.4644	12.7029	11.8525	11.1618	10.3785	9.4609	8.8112	8.0095	7.241	6.6413	6.0389	5.4125	5.1327	4.7383	4.6349	4.1615	3.8304	3.4418	3.434
556	51.394	48.2511	38.2491	29.7527	22.4922	37.9948	31.8901	30.552	31.4979	31.8859	31.1943	29.4279	28.3462	27.1656	26.3287	25.1044	25.1397	24.8117	24.443	23.7107	23.6509	23.525	22.8194	22.488	22.0305	22.0358	21.4046	20.1597	18.6716	17.9213	16.659	15.7177	14.7685	14.3008	13.3934	12.5299	11.5955	10.8955	10.0923	9.2392	8.5456	7.8503	7.3152	6.5114	5.9257	5.3673	5.0551	4.6248	4.3618	4.2003	3.8153	3.3918	3.3841
558	53.6869	46.4876	36.9623	28.8661	24.9511	37.1679	29.9817	30.0857	30.1957	30.4348	30.047	28.8239	26.9522	25.6596	25.6644	25.0995	24.153	23.9201	23.7588	23.8514	23.4754	22.7379	22.0349	21.7279	21.7011	21.0034	20.6726	19.5652	18.1018	17.33	16.419	15.2941	14.5405	13.8742	12.9247	12.2273	11.2097	10.6071	9.8683	9.2584	8.4038	7.775	7.2198	6.4806	5.8085	5.3202	4.9216	4.5074	4.1431	4.1926	3.6946	3.3595	3.3518
560	49.7014	48.2113	36.4488	28.3184	27.4797	35.8667	29.7978	28.752	28.8406	28.9265	29.4068	28.0057	26.0683	24.9469	24.0565	23.7746	23.0934	22.8095	22.9469	22.8296	22.548	21.864	21.4188	21.1489	20.7961	20.4906	19.9694	19.0534	17.9933	16.8428	15.819	14.8521	14.0739	13.3367	12.4636	11.8631	11.0792	10.4278	9.6155	8.9844	8.1738	7.6212	6.9734	6.4163	5.6849	5.2162	4.7817	4.3842	3.9493	4.1792	3.7147	3.4666	3.4587
562	48.2566	46.048	35.9014	29.4226	30.0772	35.4794	29.7433	27.3649	27.3761	27.3601	27.8787	26.8961	25.2075	23.6577	23.1713	22.6883	22.4437	22.0021	21.9693	21.9539	21.9655	21.0285	20.6274	20.526	20.2758	19.8868	19.2682	18.4567	17.1056	16.3549	15.21	14.5125	13.9214	12.7805	12.2965	11.3992	10.8139	10.089	9.3072	8.6245	7.9749	7.4222	6.8356	6.2356	5.5548	5.0794	4.6595	4.2552	3.9042	3.8815	3.5882	3.3936	3.3859
564	47.4896	42.9809	35.322	32.2595	32.7453	32.9252	30.7929	25.9262	25.8015	25.737	26.5263	25.4416	24.5198	23.2331	22.6251	22.3838	21.4372	21.5697	21.0844	21.0339	20.9486	20.6594	20.0098	19.4801	19.3482	19.1915	18.7565	17.6798	16.6887	15.8024	14.7959	13.9234	13.2266	12.4327	11.8101	11.1701	10.4339	9.7351	9.2116	8.5224	7.7688	7.2333	6.5768	6.1591	5.6989	4.9364	4.5317	4.181	3.8561	3.794	3.6646	3.3037	3.2962
566	43.3914	43.228	34.732	32.1926	29.9565	27.835	30.3983	24.451	24.1868	25.2838	25.3465	25.0417	23.5148	21.9737	21.3658	21.3547	20.5923	20.7715	20.8577	20.2604	20.1561	19.6791	19.0275	18.8441	18.9096	18.4183	17.9462	17.0953	16.1867	15.476	14.3821	13.2986	12.9319	12.1613	11.675	10.9415	10.0291	9.5084	8.9194	8.319	7.4804	6.9202	6.4841	6.0062	5.6382	4.7899	4.4314	4.1362	3.8073	3.5027	3.5329	3.1923	3.185
568	42.4073	45.5032	39.4195	31.4437	24.6168	18.6422	30.0454	22.9361	24.5866	23.7516	24.1355	24.1545	23.2543	21.127	21.3785	20.4327	20.2713	19.8217	19.7591	19.9133	18.9318	18.8573	18.6924	18.5495	18.1746	17.8463	17.6261	16.7224	15.7868	14.8456	14.1403	13.068	12.4318	11.8698	11.2489	10.3821	9.8623	9.209	8.5778	7.9816	7.3692	6.9159	6.44	5.8839	5.4585	4.6397	4.391	4.0906	3.7575	3.4435	3.5016	3.282	3.2745
570	43.2064	40.9065	38.994	31.1407	24.4175	20.8165	29.088	24.1717	23.056	22.1629	22.8769	22.9185	22.2742	20.8386	20.3615	19.5746	19.3068	19.289	18.9425	18.757	18.8262	18.318	18.0764	18.0197	17.6711	17.5185	16.8528	16.102	15.5118	14.171	13.6248	12.8202	12.0474	11.258	10.6621	10.1805	9.4935	9.0444	8.4211	7.7293	7.1176	6.6159	6.3396	5.9937	5.3595	4.8966	4.3472	4.0422	3.7055	3.3809	3.3286	3.1707	3.1635
572	39.254	39.3541	36.6858	31.2054	24.4023	23.1016	28.6453	24.5506	21.5164	20.7624	21.6172	22.5443	20.9398	20.1999	19.5772	18.96	18.9004	18.8757	18.6412	18.2551	18.3562	18.0261	17.7339	17.3182	16.7963	16.4972	16.5363	15.2855	14.6335	13.8116	13.2155	12.2542	11.5788	10.8916	10.5219	9.8974	9.3252	8.5105	8.1329	7.7702	6.9931	6.3701	6.115	5.8691	5.2492	4.752	4.3092	3.999	3.6602	3.3219	3.1014	3.0547	3.0477
574	39.5383	36.8988	35.9336	31.2539	25.6576	25.4566	30.1766	24.6292	19.9136	19.5069	20.3031	20.6608	20.3812	20.1799	18.8527	18.4231	18.4722	17.9497	17.6693	17.6621	17.7456	17.4074	16.7683	16.5077	16.3962	16.3901	15.9723	14.9189	14.1563	13.5582	12.8803	11.7396	11.2432	10.5557	10.2854	9.6323	8.9738	8.6485	7.9514	7.2991	6.7542	6.4452	5.8594	5.5103	5.0981	4.752	4.2675	3.9543	3.6111	3.2589	2.8948	3.0058	2.9989
576	37.9171	35.8068	35.0629	31.2858	28.2517	27.8815	28.0255	25.3488	18.2475	18.1992	20.2638	19.9177	20.0647	19.3723	18.3449	18.0203	17.8517	17.5517	17.6405	17.1691	17.1633	16.9208	16.1153	15.962	15.621	15.756	15.0341	14.598	13.8422	13.0477	12.205	11.6289	10.8331	10.5541	9.8165	9.37	8.7616	8.2728	7.6561	7.0238	6.5425	6.0575	5.85	5.486	4.8827	4.5679	4.2219	3.9068	3.5503	3.1919	2.8289	2.9093	2.9026
578	37.4601	32.6468	33.0661	31.3011	28.2118	25.3775	23.3345	24.9398	16.5185	19.8996	18.9681	19.1393	19.2303	18.4892	18.1759	17.3859	17.0734	16.9787	16.7114	16.6309	16.2004	16.1858	15.4302	15.2713	15.2007	14.9228	14.7992	13.9384	13.2298	12.504	12.0818	11.1756	10.7966	10.0497	9.5524	9.1838	8.5766	7.9189	7.3673	7.053	6.4187	6.188	5.7035	5.2333	5.005	4.6286	4.121	3.8556	3.4855	3.1175	2.7592	2.8148	2.8084
580	35.1168	30.7471	32.2874	28.0696	23.4951	19.4342	16.2271	25.697	19.9283	18.6379	17.6217	18.3259	18.9843	17.6065	17.3374	17.0743	16.3827	16.7454	16.2112	15.9622	15.9658	15.5962	15.0711	14.9596	14.9931	14.7382	14.4493	13.6891	12.9944	12.1183	11.6262	10.4835	10.2645	9.64	9.1864	8.8534	8.2971	7.7834	7.3876	6.9587	6.276	5.8759	5.599	5.2004	4.8701	4.4644	4.081	3.8008	3.4151	3.0373	2.6859	2.6931	2.687
582	32.2629	27.1127	29.1968	27.5934	23.2237	19.3384	17.7043	24.0045	19.7558	17.3329	16.5239	17.4829	18.135	17.2332	16.5619	16.4763	16.2251	16.03	15.734	15.6209	15.3621	15.1675	14.8167	14.3791	14.2463	14.0594	13.8281	12.9157	12.3625	11.9086	11.1827	10.3789	10.0055	9.4214	9.0017	8.5423	8.0549	7.5207	7.0195	6.6395	5.9785	5.549	5.3598	5.0343	4.8203	4.2592	4.0984	3.7433	3.3381	2.9539	2.6096	2.2679	2.2627
584	28.2306	28.2423	26.9655	27.277	23.3512	19.4226	19.222	24.1747	20.3872	15.9785	15.6824	16.6044	16.7389	16.7134	16.5059	15.7015	15.4332	15.0862	15.1647	15.0174	15.0358	14.4794	14.0682	14.1038	13.7637	14.0549	13.5169	12.7633	11.962	11.3018	10.8746	10.023	9.7917	9.2103	8.5642	8.352	7.6125	7.4175	6.8672	6.3646	6.0413	5.5378	5.1236	4.8319	4.7048	4.2936	3.9547	3.5916	3.257	2.8792	2.5295	2.0394	1.8676
586	28.316	25.4681	25.7256	25.5788	23.4673	20.2755	20.777	24.8976	20.2399	14.5726	14.8048	16.1112	16.0612	16.0356	15.3699	15.2907	15.2882	14.5939	14.8157	14.3194	13.9288	14.1066	13.8209	13.4517	13.245	13.3877	12.6664	12.1159	11.4652	11.032	10.5001	9.8269	9.3073	9.0205	8.2455	8.1023	7.5106	7.1385	6.6254	6.147	5.7098	5.3701	4.928	4.7466	4.4466	4.1704	3.9461	3.6323	3.1711	2.8002	2.4565	1.8023	1.5395
588	24.4022	24.0381	24.3978	26.005	23.572	21.9342	22.3688	23.42	20.1199	13.1163	15.1874	14.9765	15.353	15.576	14.8828	14.8855	14.705	14.2282	14.3067	14.2684	13.7288	13.7368	13.0872	12.8041	12.9137	12.7735	12.5202	11.983	11.2186	10.4617	10.0523	9.509	9.1385	8.4444	8.1447	7.7085	7.464	6.9699	6.4396	5.9509	5.5831	5.2982	4.8481	4.5561	4.4117	3.9275	3.8544	3.4165	3.0807	2.7228	2.3854	1.557	0.6439
590	26.8947	20.8772	24.2208	26.147	23.6694	22.1018	21.1049	20.8011	19.1185	14.3255	14.0781	13.8022	14.6171	15.0223	14.4764	14.0551	14.2644	13.6456	13.8945	13.5711	13.0359	12.978	12.7552	12.4878	12.5709	12.4245	12.1727	11.5465	10.4732	10.1718	9.7228	9.1255	8.6733	8.3239	7.7601	7.6013	7.0489	6.6897	6.3673	5.7964	5.3204	5.2777	4.622	4.4323	4.2462	3.9021	3.7599	3.4854	2.9862	2.6535	2.2277	1.3036	0
592	27.9318	23.2191	24.9747	25.5023	24.4077	20.1757	16.8329	14.2518	19.0898	15.6499	12.9779	12.8669	13.9039	14.6841	14.0719	13.7622	13.6148	13.4603	13.2222	13.0166	12.8305	12.4187	12.4642	12.2124	11.9635	11.8162	11.4557	11.0536	10.8093	9.8077	9.4131	8.765	8.5526	8.2194	7.5784	7.3005	6.8157	6.649	6.2203	5.6987	5.2746	4.9023	4.6014	4.4751	4.1554	3.7988	3.5913	3.4371	3.1544	2.5903	1.987	1.225	0
594	28.6823	24.0854	22.9698	22.9031	26.1049	21.381	16.8436	15.6901	21.4052	14.6524	11.8301	12.1266	13.1559	13.5086	13.4971	13.1325	12.9507	12.9819	13.0767	12.6646	12.4911	12.3557	11.6716	11.7301	11.6972	11.5615	11.293	10.7757	10.263	9.7762	9.2032	8.5238	8.2967	7.8553	7.5186	7.0811	6.7543	6.2508	5.9513	5.5744	5.2855	4.8626	4.6458	4.2966	4.0542	3.9293	3.5328	3.4248	3.0204	2.5232	1.8644	0	0
596	26.0881	22.1238	20.236	22.4652	26.8167	20.2804	18.3204	17.1792	20.2792	16.367	10.6395	11.3575	12.6771	13.0672	12.9449	12.8108	12.9474	12.7014	12.2904	12.5196	12.191	12.1341	11.603	11.3259	11.5797	11.3594	11.0162	10.4778	9.848	9.2123	8.9009	8.5685	7.9872	7.5534	7.2142	6.9182	6.5174	6.1658	5.7502	5.4111	4.9513	4.8022	4.6074	4.1877	3.9482	3.7677	3.4442	3.12	2.8671	2.453	1.847	0	0
598	22.0771	21.8484	18.1954	22.928	24.7148	21.8463	19.9166	18.7211	19.5632	15.5339	9.4044	11.5858	12.2138	12.607	12.3114	12.7482	12.4183	12.104	12.173	11.8428	11.749	11.592	11.4295	10.7281	10.8572	11.063	10.6678	10.1965	9.5929	9.003	8.4514	8.1	7.7468	7.3882	6.9238	6.7137	6.1887	5.7744	5.6641	5.3816	4.8155	4.5405	4.2314	4.1024	3.7252	3.6207	3.3183	3.1773	2.9146	2.5997	0	0	0
600	25.3403	17.0729	20.9043	21.491	26.4028	23.6031	21.5602	20.309	19.8632	14.4752	10.3044	11.1052	11.726	12.122	12.5074	11.8512	11.8345	11.31	11.4978	11.3105	11.0398	11.055	11.0743	10.8205	10.6222	10.625	10.4169	9.9547	9.3519	8.7094	8.3447	8.0222	7.4586	7.1703	6.8792	6.5545	6.0947	5.6711	5.3444	5.1923	4.6847	4.6172	4.2248	3.9307	3.8046	3.5521	3.3959	2.9972	2.8095	2.5146	0	0	0
