Description	SCS-B (clean blank)																																																				
EEM type	"Dilution- & Scatter-corrected, Calibrated Data (ppb QSE)"																																																				
Scan date	10/12/2010 10:15																																																				
Excitation	240-500nm by 5nm																																																				
Emission	290-600nm by 2nm																																																				
Calibration	Michael_Fluoromax4_April08 (07-Apr-2008)																																																				
Slit settings	"5nm Excitation, 5nm Emission"																																																				
Dilution	20																																																				
Row 1	Excitation(nm)																																																				
Col 1	Emission(nm)																																																				
Data	Fluorescence(ppb QSE)																																																				
																																																					
	240	245	250	255	260	265	270	275	280	285	290	295	300	305	310	315	320	325	330	335	340	345	350	355	360	365	370	375	380	385	390	395	400	405	410	415	420	425	430	435	440	445	450	455	460	465	470	475	480	485	490	495	500
290	0	0	0	0	0	0	0	0	0	0	0	0	0	0	0	0	0	0	0	0	0	0	0	0	0	0	0	0	0	0	0	0	0	0	0	0	0	0	0	0	0	0	0	0	0	0	0	0	0	0	0	0	0
292	0	0	0	0	0	0	0	1.0886	0	0	0	0	0	0	0	0	0	0	0	0	0	0	0	0	0	0	0	0	0	0	0	0	0	0	0	0	0	0	0	0	0	0	0	0	0	0	0	0	0	0	0	0	0
294	0	0	0	0	0	0	0	2.1534	0	0	0	0	0	0	0	0	0	0	0	0	0	0	0	0	0	0	0	0	0	0	0	0	0	0	0	0	0	0	0	0	0	0	0	0	0	0	0	0	0	0	0	0	0
296	0	0	0	0	0	0	3.2734	3.1903	0	0	0	0	0	0	0	0	0	0	0	0	0	0	0	0	0	0	0	0	0	0	0	0	0	0	0	0	0	0	0	0	0	0	0	0	0	0	0	0	0	0	0	0	0
298	0	0	0	0	0	0	6.4572	4.1949	1.8838	0	0	0	0	0	0	0	0	0	0	0	0	0	0	0	0	0	0	0	0	0	0	0	0	0	0	0	0	0	0	0	0	0	0	0	0	0	0	0	0	0	0	0	0
300	0	0	0	0	0	3.3698	8.4894	5.1701	3.715	0	0	0	0	0	0	0	0	0	0	0	0	0	0	0	0	0	0	0	0	0	0	0	0	0	0	0	0	0	0	0	0	0	0	0	0	0	0	0	0	0	0	0	0
302	0	0	0	0	0	6.7518	9.5665	8.6206	5.5821	0	0	0	0	0	0	0	0	0	0	0	0	0	0	0	0	0	0	0	0	0	0	0	0	0	0	0	0	0	0	0	0	0	0	0	0	0	0	0	0	0	0	0	0
304	0	0	0	0	0	10.1462	10.6472	12.0836	7.4556	2.6696	0	0	0	0	0	0	0	0	0	0	0	0	0	0	0	0	0	0	0	0	0	0	0	0	0	0	0	0	0	0	0	0	0	0	0	0	0	0	0	0	0	0	0
306	0	0	0	0	0	13.5461	14.2028	14.7465	9.3308	5.3459	0	0	0	0	0	0	0	0	0	0	0	0	0	0	0	0	0	0	0	0	0	0	0	0	0	0	0	0	0	0	0	0	0	0	0	0	0	0	0	0	0	0	0
308	0	0	0	0	0	16.9464	17.759	16.6017	13.4402	8.025	0	0	0	0	0	0	0	0	0	0	0	0	0	0	0	0	0	0	0	0	0	0	0	0	0	0	0	0	0	0	0	0	0	0	0	0	0	0	0	0	0	0	0
310	0	0	0	0	5.7109	18.8778	21.321	18.4595	17.5566	10.7082	3.5469	0	0	0	0	0	0	0	0	0	0	0	0	0	0	0	0	0	0	0	0	0	0	0	0	0	0	0	0	0	0	0	0	0	0	0	0	0	0	0	0	0	0
312	0	0	0	0	4.0066	22.4429	24.7389	22.3964	20.8072	13.3149	7.0569	0	0	0	0	0	0	0	0	0	0	0	0	0	0	0	0	0	0	0	0	0	0	0	0	0	0	0	0	0	0	0	0	0	0	0	0	0	0	0	0	0	0
314	0	0	0	0	4.1777	29.7068	28.1197	26.2912	23.284	18.0312	10.53	0	0	0	0	0	0	0	0	0	0	0	0	0	0	0	0	0	0	0	0	0	0	0	0	0	0	0	0	0	0	0	0	0	0	0	0	0	0	0	0	0	0
316	0	0	1.7666	4.3154	9.1433	22.7752	35.3136	30.0439	25.6479	22.6225	13.9199	3.6988	0	0	0	0	0	0	0	0	0	0	0	0	0	0	0	0	0	0	0	0	0	0	0	0	0	0	0	0	0	0	0	0	0	0	0	0	0	0	0	0	0
318	4.249	0	0	1.6638	15.8831	32.5188	38.3628	33.6146	29.9198	26.3427	17.1916	7.3091	0	0	0	0	0	0	0	0	0	0	0	0	0	0	0	0	0	0	0	0	0	0	0	0	0	0	0	0	0	0	0	0	0	0	0	0	0	0	0	0	0
320	24.3988	0	0.1508	1.7372	16.7088	32.7919	40.9134	37.0899	34.081	29.2757	20.5463	10.831	0	0	0	0	0	0	0	0	0	0	0	0	0	0	0	0	0	0	0	0	0	0	0	0	0	0	0	0	0	0	0	0	0	0	0	0	0	0	0	0	0
322	26.8186	0	0	16.3216	23.6081	35.7099	40.7666	42.8203	37.9542	31.9795	23.7029	14.1981	3.7292	0	0	0	0	0	0	0	0	0	0	0	0	0	0	0	0	0	0	0	0	0	0	0	0	0	0	0	0	0	0	0	0	0	0	0	0	0	0	0	0
324	18.4273	13.224	11.5532	23.1828	25.2123	38.3638	43.075	43.0974	41.6747	34.7271	26.6854	17.4434	7.3307	0	0	0	0	0	0	0	0	0	0	0	0	0	0	0	0	0	0	0	0	0	0	0	0	0	0	0	0	0	0	0	0	0	0	0	0	0	0	0	0
326	36.9986	9.0148	12.937	21.3293	28.7798	39.4041	43.9102	49.9694	45.2221	37.3424	29.4833	20.8091	10.7995	0	0	0	0	0	0	0	0	0	0	0	0	0	0	0	0	0	0	0	0	0	0	0	0	0	0	0	0	0	0	0	0	0	0	0	0	0	0	0	0
328	28.6471	20.3217	20.3131	21.7864	33.9351	44.6623	47.8882	47.1877	45.4074	39.821	32.1467	24.0296	14.1308	3.5456	0	0	0	0	0	0	0	0	0	0	0	0	0	0	0	0	0	0	0	0	0	0	0	0	0	0	0	0	0	0	0	0	0	0	0	0	0	0	0
330	52.6548	34.1786	23.2066	26.1005	38.2039	43.3063	48.9484	53.3072	50.688	42.1777	34.9188	27.0317	17.3275	6.9564	0	0	0	0	0	0	0	0	0	0	0	0	0	0	0	0	0	0	0	0	0	0	0	0	0	0	0	0	0	0	0	0	0	0	0	0	0	0	0
332	45.0417	32.3715	27.5885	33.8377	36.2708	49.0464	47.3275	53.8984	54.6036	43.9362	37.156	29.5002	20.1582	10.1227	0	0	0	0	0	0	0	0	0	0	0	0	0	0	0	0	0	0	0	0	0	0	0	0	0	0	0	0	0	0	0	0	0	0	0	0	0	0	0
334	36.3281	25.8706	33.0012	34.5194	42.1028	47.4295	48.0619	51.7905	54.7938	49.6002	39.1896	31.7656	22.7817	13.0807	3.5648	0	0	0	0	0	0	0	0	0	0	0	0	0	0	0	0	0	0	0	0	0	0	0	0	0	0	0	0	0	0	0	0	0	0	0	0	0	0
336	47.9547	40.5626	39.5454	40.6272	41.4228	45.3673	49.1619	52.0495	52.8153	52.3392	41.0611	33.8505	25.2276	15.8462	6.9098	0	0	0	0	0	0	0	0	0	0	0	0	0	0	0	0	0	0	0	0	0	0	0	0	0	0	0	0	0	0	0	0	0	0	0	0	0	0
338	51.1134	49.1877	35.2575	35.5378	42.8927	48.3513	49.2418	51.478	54.0859	54.0187	42.7799	35.7767	27.5048	19.2217	10.0452	0	0	0	0	0	0	0	0	0	0	0	0	0	0	0	0	0	0	0	0	0	0	0	0	0	0	0	0	0	0	0	0	0	0	0	0	0	0
340	51.0558	50.2886	48.9826	47.5942	48.2468	50.9397	48.7398	52.4562	55.0059	53.8716	45.178	37.5125	29.5865	22.351	12.9673	4.3838	0	0	0	0	0	0	0	0	0	0	0	0	0	0	0	0	0	0	0	0	0	0	0	0	0	0	0	0	0	0	0	0	0	0	0	0	0
342	64.3946	49.2241	45.7476	46.4408	46.6314	53.0074	53.728	54.4096	57.4475	53.5126	49.2094	39.2713	32.3882	25.1225	15.7614	8.5262	0	0	0	0	0	0	0	0	0	0	0	0	0	0	0	0	0	0	0	0	0	0	0	0	0	0	0	0	0	0	0	0	0	0	0	0	0
344	73.1848	56.4784	46.876	55.3851	52.2867	55.0715	58.6343	55.3411	57.3452	56.4638	49.7595	40.8702	34.9834	27.4588	20.5691	12.4267	2.502	0	0	0	0	0	0	0	0	0	0	0	0	0	0	0	0	0	0	0	0	0	0	0	0	0	0	0	0	0	0	0	0	0	0	0	0
346	71.9516	57.494	61.6113	61.1553	58.4295	54.5877	56.7725	60.2971	58.1559	56.6079	55.2483	45.4735	37.4703	29.6938	25.1359	16.1274	7.2411	0	0	0	0	0	0	0	0	0	0	0	0	0	0	0	0	0	0	0	0	0	0	0	0	0	0	0	0	0	0	0	0	0	0	0	0
348	83.1302	69.751	66.5776	59.289	57.7016	62.1662	60.5641	59.2169	61.0285	60.8573	57.7014	49.7282	39.8757	33.9261	28.9652	19.6596	11.7489	4.4512	0	0	0	0	0	0	0	0	0	0	0	0	0	0	0	0	0	0	0	0	0	0	0	0	0	0	0	0	0	0	0	0	0	0	0
350	88.2439	81.8877	64.3953	68.9593	63.7135	62.3316	64.5215	62.6737	65.5206	61.9131	58.4318	53.488	42.1102	37.9051	32.0444	23.7261	16.0187	9.0557	2.7768	0	0	0	0	0	0	0	0	0	0	0	0	0	0	0	0	0	0	0	0	0	0	0	0	0	0	0	0	0	0	0	0	0	0
352	95.7865	86.3654	75.7849	67.0789	68.3866	64.8468	67.1975	68.2315	66.8568	64.3575	63.1395	58.0498	48.8186	41.6392	34.9307	27.5596	20.054	12.5504	7.2181	0.1691	0	0	0	0	0	0	0	0	0	0	0	0	0	0	0	0	0	0	0	0	0	0	0	0	0	0	0	0	0	0	0	0	0
354	99.416	89.6648	83.4809	77.9573	69.0211	71.2856	69.559	68.8014	68.9809	69.6616	64.8563	59.7973	53.3362	45.1213	38.3125	31.1557	24.797	18.4047	10.8663	4.8298	0	0	0	0	0	0	0	0	0	0	0	0	0	0	0	0	0	0	0	0	0	0	0	0	0	0	0	0	0	0	0	0	0
356	99.9518	103.7946	88.4414	80.2193	75.4485	73.8702	74.1658	72.1797	71.2672	72.5186	69.7226	63.5678	57.6935	48.5177	42.5191	36.478	30.5665	24.0041	16.5519	8.0704	2.3025	0	0	0	0	0	0	0	0	0	0	0	0	0	0	0	0	0	0	0	0	0	0	0	0	0	0	0	0	0	0	0	0
358	98.0148	98.5844	86.6692	80.4367	78.315	76.2851	77.8423	75.1864	76.3382	74.6281	71.0264	68.8357	62.4554	53.1447	47.5363	41.6479	36.7217	29.4102	21.0586	13.1638	8.2242	0	0	0	0	0	0	0	0	0	0	0	0	0	0	0	0	0	0	0	0	0	0	0	0	0	0	0	0	0	0	0	0
360	129.8449	113.8055	99.4505	94.4845	87.4386	81.1034	74.4233	77.3025	80.1295	79.3302	78.7486	72.932	69.3602	59.7487	52.297	47.1197	42.5836	34.5609	27.5122	19.4488	9.8554	3.3229	0	0	0	0	0	0	0	0	0	0	0	0	0	0	0	0	0	0	0	0	0	0	0	0	0	0	0	0	0	0	0
362	126.029	123.942	112.7467	97.2371	91.0027	89.7087	86.6885	84.639	83.6241	82.6237	79.3757	76.4214	73.7818	68.1827	57.2028	52.9547	47.6284	40.7317	33.8993	24.2445	15.001	7.2859	0	0.0541	0.0624	0	0	0	0	0	0	0	0	0	0	0	0	0	0	0	0	0	0	0	0	0	0	0	0	0	0	0	0
364	160.0312	133.9868	113.7862	105.3482	100.6905	94.5938	93.3803	89.5408	90.2119	89.2289	86.4443	83.6353	80.6361	73.9201	65.5457	58.5876	52.4969	48.6621	40.0773	29.7075	20.4739	12.3128	2.3117	0.1598	0.1228	0	0	0	0	0	0	0	0	0	0	0	0	0	0	0	0	0	0	0	0	0	0	0	0	0	0	0	0
366	150.3789	148.0194	124.2644	113.2489	109.7821	104.1098	95.5204	96.8314	94.7104	96.2375	95.9066	90.5308	88.0883	82.6773	74.8546	64.071	59.1715	56.3733	46.084	35.9481	24.2926	16.271	7.8624	0.2623	0.1815	0	0	0	0	0	0	0	0	0	0	0	0	0	0	0	0	0	0	0	0	0	0	0	0	0	0	0	0
368	176.8276	144.1721	144.1449	131.9467	118.7463	113.5316	105.7738	101.7723	104.4074	102.2982	98.8015	97.0892	95.4004	87.2361	80.7689	69.4203	66.6314	62.1098	51.9768	42.0229	31.0229	19.687	11.4041	0.3619	0.1192	0	0	0	0	0	0	0	0	0	0	0	0	0	0	0	0	0	0	0	0	0	0	0	0	0	0	0	0
370	194.9579	168.1487	143.3765	132.9523	124.1645	123.2327	111.6432	109.2707	106.7701	107.1897	107.9412	105.3367	102.3308	97.3639	92.2213	82.4802	73.8523	67.6565	57.7618	47.9073	37.9869	25.8913	16.221	5.8344	0.0587	0	0	0	0	0	0	0	0	0	0	0	0	0	0	0	0	0	0	0	0	0	0	0	0	0	0	0	0
372	218.7504	186.7036	161.3009	151.2473	137.7003	129.5498	122.2007	117.3345	115.5095	112.8338	115.0365	112.2934	112.004	107.4524	98.2943	91.0449	81.2501	73.4708	63.6804	55.8797	45.4371	30.7633	20.4043	11.9885	0	0.422	0.4932	0	0	0	0	0	0	0	0	0	0	0	0	0	0	0	0	0	0	0	0	0	0	0	0	0	0
374	223.1978	196.5367	178.2103	161.0739	149.4707	140.808	131.1535	126.1549	121.9338	121.0666	122.1782	122.0701	120.2599	116.1617	109.7812	98.897	88.4914	81.2096	73.4718	65.6759	52.7372	38.6032	25.5582	15.4082	4.0532	1.2533	0.9765	0	0	0	0	0	0	0	0	0	0	0	0	0	0	0	0	0	0	0	0	0	0	0	0	0	0
376	245.4421	217.4357	193.4821	171.6841	159.6048	149.9408	138.0181	134.9134	132.18	130.5564	131.1274	132.6595	130.0851	126.1157	118.9133	110.8409	98.4047	90.6971	82.9916	73.5001	59.8345	45.1191	30.8725	19.395	9.19	2.0659	1.4486	0	0	0	0	0	0	0	0	0	0	0	0	0	0	0	0	0	0	0	0	0	0	0	0	0	0
378	258.9464	228.8081	203.1281	184.7597	168.3052	158.3147	152.1745	143.2663	141.1864	140.8988	143.4696	145.8571	140.359	138.5458	129.2182	119.537	108.1492	99.877	92.2119	81.0704	66.7087	52.7767	37.3657	22.8981	14.2904	2.8577	0.9541	0	0	0	0	0	0	0	0	0	0	0	0	0	0	0	0	0	0	0	0	0	0	0	0	0	0
380	272.6529	260.1769	221.9556	197.9962	180.7668	168.2857	162.7441	151.295	148.894	153.033	151.441	152.3578	152.0575	147.8197	142.0712	130.8597	119.4396	108.8181	99.5113	88.0662	73.4044	60.2425	43.6836	28.9621	18.8259	8.0947	0.4712	0	0	0	0	0	0	0	0	0	0	0	0	0	0	0	0	0	0	0	0	0	0	0	0	0	0
382	293.5863	265.5807	240.0972	214.0153	194.9785	180.387	170.5283	162.748	159.3968	157.0318	160.673	164.8862	163.0328	160.1058	154.5065	141.1715	130.6648	118.0589	107.0989	94.9328	82.5036	67.825	50.9522	34.7221	22.2629	12.8324	0	0.4457	0.5213	0	0	0	0	0	0	0	0	0	0	0	0	0	0	0	0	0	0	0	0	0	0	0	0
384	314.9377	289.0696	260.7039	227.1978	215.6874	188.9492	180.3021	168.0537	168.5324	168.8269	172.2775	171.7804	174.0431	167.3761	165.8678	151.8695	140.0155	127.5695	114.5624	101.6867	91.4614	75.2883	57.5782	41.5201	27.4854	17.4585	5.2827	1.3268	1.0344	0	0	0	0	0	0	0	0	0	0	0	0	0	0	0	0	0	0	0	0	0	0	0	0
386	333.1613	300.8607	260.0965	244.4425	221.6217	206.6737	193.4975	179.6195	174.7785	176.3325	178.3886	182.111	185.6685	181.732	175.9439	163.8194	155.2783	138.3266	122.3592	110.9573	99.9254	82.9415	64.3383	47.0377	33.7204	20.9253	10.3243	2.202	1.5451	0.2051	0	0	0	0	0	0	0	0	0	0	0	0	0	0	0	0	0	0	0	0	0	0	0
388	360.1455	313.1054	273.2547	259.6609	238.1858	214.7012	199.1155	187.7027	185.9057	183.9483	188.542	192.1906	193.3193	192.8082	185.215	175.7694	163.6514	149.2192	130.5827	120.608	108.0019	90.1184	71.3109	54.2032	38.9958	26.065	13.6856	3.0814	1.5038	0.4099	0	0	0	0	0	0	0	0	0	0	0	0	0	0	0	0	0	0	0	0	0	0	0
390	371.199	338.3486	303.6724	274.2366	247.3201	225.3092	212.2216	201.0659	194.6681	194.3224	198.8985	203.2569	207.9568	204.2458	198.7573	188.7778	174.861	161.2616	143.8465	130.261	116.0785	97.2944	78.2824	60.5649	46.6159	30.821	18.6436	8.4554	1.4625	0.6145	0	0	0	0	0	0	0	0	0	0	0	0	0	0	0	0	0	0	0	0	0	0	0
392	398.0241	359.5724	308.8709	286.4704	263.5386	237.481	218.3487	207.3788	203.7729	201.9256	205.4416	212.3	214.3915	217.3724	209.8022	202.5771	186.2521	173.3948	155.6489	139.0748	122.6429	103.8427	86.3642	69.1611	51.6759	35.6009	23.2652	12.7482	1.4129	1.2361	0.735	0	0	0	0	0	0	0	0	0	0	0	0	0	0	0	0	0	0	0	0	0	0
394	417.19	379.4822	325.2281	292.3906	274.6292	248.3855	226.1504	214.3155	212.3146	210.2328	215.8624	225.3696	227.5771	225.8719	219.7386	211.3106	199.605	184.7072	167.2746	147.7727	130.8115	113.627	95.8956	77.6496	59.9781	43.9392	27.6245	16.5543	6.4871	2.2688	1.4604	0	0	0	0	0	0	0	0	0	0	0	0	0	0	0	0	0	0	0	0	0	0
396	450.7548	397.1731	345.3892	307.5701	281.1764	263.9158	242.0669	223.9817	220.6134	220.2403	225.4761	231.9768	238.5503	240.6301	230.6484	225.5913	211.2937	197.3914	180.4916	160.3698	140.7759	123.4789	105.3509	86.1638	67.8311	49.6691	33.4384	21.0071	10.5869	3.293	2.1797	0.2318	0	0	0	0	0	0	0	0	0	0	0	0	0	0	0	0	0	0	0	0	0
398	461.1247	413.7848	364.2137	334.2656	303.1163	275.6053	251.9522	237.2972	233.6951	227.5516	237.1767	246.4757	251.0385	250.4413	247.6578	241.3196	227.22	212.2546	192.8261	171.7467	150.8825	133.3246	114.8969	94.7452	76.0247	56.9209	39.6013	24.5643	15.8156	4.3136	1.9869	0.4619	0	0	0	0	0	0	0	0	0	0	0	0	0	0	0	0	0	0	0	0	0
400	495.8036	435.634	385.4764	338.7944	319.4802	293.2887	263.9437	244.9583	243.6668	239.8177	246.8479	254.4606	262.1356	260.8457	260.2771	252.7164	240.0768	224.2568	205.5153	185.8724	160.9279	143.0494	123.5837	103.5643	84.1677	63.0221	46.405	29.7088	19.1195	8.7014	1.7954	0.6905	0	0	0	0	0	0	0	0	0	0	0	0	0	0	0	0	0	0	0	0	0
402	507.485	449.1315	394.1459	362.1549	331.9578	298.4963	273.5016	259.8521	252.4352	249.8921	254.0628	265.6107	273.0664	274.0227	276.1976	265.5978	253.71	238.4399	218.9579	200.2767	175.2662	152.4512	131.9883	112.7149	92.101	71.4243	52.7534	35.478	22.8189	13.2788	1.6025	1.2183	0.6284	0	0	0	0	0	0	0	0	0	0	0	0	0	0	0	0	0	0	0	0
404	528.7379	479.3918	406.9174	377.1553	346.377	319.5014	292.2702	265.9694	261.4936	260.9036	263.4156	273.9292	280.1177	288.5028	284.8271	279.9822	265.2553	251.2704	232.756	212.6422	188.3572	161.7577	140.8981	121.7743	99.9543	78.874	58.7447	41.1536	26.9328	18.0692	7.1105	2.0414	1.2501	0	0	0	0	0	0	0	0	0	0	0	0	0	0	0	0	0	0	0	0
406	533.3572	487.9234	436.9552	391.9283	369.7955	328.6803	299.0057	280.3066	271.0281	266.4651	275.4427	281.6572	294.3179	298.5886	298.735	292.7324	277.5107	266.2954	245.8033	226.9605	201.7522	171.291	150.2937	129.7968	107.7757	86.41	65.7095	47.5826	32.2281	21.3468	10.925	2.8611	1.8688	0.1272	0	0	0	0	0	0	0	0	0	0	0	0	0	0	0	0	0	0	0
408	561.9006	508.817	439.7496	409.4831	379.2169	341.8185	315.2069	291.5749	279.8944	277.6917	283.5262	294.0624	308.5333	312.1679	311.7963	307.6579	296.0514	280.7125	260.4291	237.1066	212.9265	185.9411	159.9342	138.029	115.4584	94.0763	73.2989	53.9582	36.8726	24.6567	16.1899	3.6821	1.5388	0.2539	0	0	0	0	0	0	0	0	0	0	0	0	0	0	0	0	0	0	0
410	585.7098	538.6004	472.7735	430.0184	392.4106	350.6201	326.2596	298.3162	290.1248	285.5501	294.2622	301.864	319.0065	321.173	320.3029	322.7804	305.9249	297.1737	275.0739	252.8025	225.2855	200.5682	169.5557	145.9305	123.124	102.6175	80.6341	60.6611	43.3739	29.578	19.3607	9.2435	1.2098	0.3803	0	0	0	0	0	0	0	0	0	0	0	0	0	0	0	0	0	0	0
412	607.5672	548.8621	488.9701	444.7695	408.1914	370.4729	335.2798	310.693	296.8411	296.2802	299.0773	315.6516	327.3595	332.6509	338.1372	332.2487	322.8795	306.0076	287.7982	266.5049	240.3665	213.1829	179.1718	154.5807	132.5757	112.0402	87.959	68.8152	49.4468	34.8278	23.1311	13.1639	0.8819	1.0116	0.7432	0	0	0	0	0	0	0	0	0	0	0	0	0	0	0	0	0	0
414	602.196	556.9637	493.9244	454.2872	423.5128	382.1116	348.8724	320.3583	306.5404	299.9406	307.5954	322.1354	335.1434	343.2551	346.029	342.781	333.028	320.604	301.6852	278.6096	253.7363	221.972	192.0565	164.1243	142.0098	119.3234	95.2683	73.8341	54.988	38.6216	27.9267	17.7647	7.1063	2.1457	1.4842	0	0	0	0	0	0	0	0	0	0	0	0	0	0	0	0	0	0
416	638.4862	594.0683	522.0999	473.074	435.3085	392.7594	354.2465	329.8348	318.8302	308.3781	315.0223	326.8722	342.2112	350.8795	356.0575	353.1951	348.3389	334.4361	317.1485	294.0854	268.9109	235.3601	204.4378	174.0483	151.7736	126.8804	102.7962	78.8889	60.6165	44.3742	31.6433	20.8226	11.8095	3.284	2.228	0.1893	0	0	0	0	0	0	0	0	0	0	0	0	0	0	0	0	0
418	675.9762	586.0801	540.3016	491.7806	447.3978	406.4123	367.5173	341.9426	325.4696	316.8953	325.3279	337.9824	352.6663	363.1786	366.4345	369.5583	359.5786	351.5417	328.5512	304.4658	278.2782	247.5593	216.4529	184.4209	159.7846	134.7627	111.1851	86.9362	67.0037	50.3849	35.5143	25.4217	15.6196	4.4341	1.9297	0.3797	0	0	0	0	0	0	0	0	0	0	0	0	0	0	0	0	0
420	724.1804	618.2722	554.0123	499.573	461.123	420.0106	382.365	350.9708	333.0279	324.323	334.7233	344.4123	358.3787	369.6365	376.2577	380.3806	370.2326	362.7731	342.2807	317.8165	292.6131	261.7613	228.0314	194.8671	168.4477	143.8865	119.7562	95.039	73.1576	55.1888	39.8899	27.7854	18.8703	8.86	1.6296	0.5713	0	0	0	0	0	0	0	0	0	0	0	0	0	0	0	0	0
422	683.6435	624.4722	569.984	519.8908	483.6001	430.8725	392.8346	359.1031	340.5025	334.1868	342.4952	353.0105	364.8888	380.0838	386.7707	389.8585	385.1902	377.7031	357.9254	333.7501	306.6309	274.833	240.7109	207.112	177.8142	153.1118	127.476	103.2221	79.2577	60.8019	45.4515	31.7879	22.7242	12.5955	1.3279	1.211	0.7473	0	0	0	0	0	0	0	0	0	0	0	0	0	0	0	0
424	717.4867	634.6638	584.94	530.1719	491.548	447.1959	403.5868	369.9832	351.167	341.8804	346.5985	362.0154	374.0182	383.5165	395.9805	398.7165	397.2261	387.9428	371.3521	347.9262	318.6505	286.25	252.1492	217.6321	187.2494	161.4574	135.251	111.4648	86.2483	66.215	50.095	36.0787	25.8277	15.8311	6.4153	2.303	1.4994	0	0	0	0	0	0	0	0	0	0	0	0	0	0	0	0
426	722.028	669.8258	597.4939	541.5872	503.0834	454.5993	411.9152	379.0683	356.3523	348.9618	353.8924	363.519	380.6915	393.3341	403.1852	412.5135	409.0875	402.2933	383.1125	360.4694	330.6864	295.3381	262.5866	229.441	197.0746	169.6627	143.8581	119.1154	93.44	72.2987	54.9783	40.0702	29.0422	19.9928	10.2956	3.4075	2.2601	0.3411	0	0	0	0	0	0	0	0	0	0	0	0	0	0	0
428	732.5795	669.3508	591.9964	563.9035	527.0714	462.9969	423.1698	382.5286	366.2882	352.2749	361.6995	371.0035	389.19	396.1582	416.137	422.9939	422.409	414.2953	396.4962	372.75	341.6936	309.3125	273.7752	241.2955	207.6493	178.2362	152.7978	125.3415	100.8662	78.1888	60.3512	44.6437	32.5721	23.035	13.9595	4.53	2.3135	0.6866	0	0	0	0	0	0	0	0	0	0	0	0	0	0	0
430	762.0735	671.7648	631.5077	575.1932	530.9623	475.0779	435.3976	398.2933	370.3914	362.4387	367.0958	378.1313	393.9962	407.5105	422.0678	430.4055	430.0114	423.3807	408.2201	388.7694	357.3382	324.1159	285.0341	250.2606	217.3054	186.9149	160.1326	131.6424	108.3868	84.9613	65.029	49.8021	36.7546	26.2219	16.6199	7.9307	2.3675	1.0364	0	0	0	0	0	0	0	0	0	0	0	0	0	0	0
432	751.3044	687.9159	628.1933	588.6915	536.4589	482.218	442.7155	399.7029	383.624	371.375	376.0077	382.1091	398.5593	411.8187	427.0647	440.2455	441.1502	435.0969	421.2405	398.2493	369.8835	331.9464	295.3469	259.7138	227.5584	195.4827	166.5071	139.2584	115.6612	91.7184	71.0103	54.2815	40.3765	28.8842	20.8169	11.6743	2.4193	1.7315	0.8058	0	0	0	0	0	0	0	0	0	0	0	0	0	0
434	768.3749	689.7078	649.6735	601.4351	552.1569	492.8302	448.7364	409.3347	383.2745	375.0705	378.5211	384.6225	407.475	416.8948	434.6979	443.9538	449.6778	444.3691	433.1969	410.8252	379.8567	345.519	307.1282	270.3037	236.1434	207.4902	172.9447	146.9543	122.5839	98.5474	75.4984	58.7873	44.8961	32.7802	24.2803	15.3183	6.3363	2.778	1.62	0	0	0	0	0	0	0	0	0	0	0	0	0	0
436	803.6181	710.3843	667.2909	603.2434	571.9161	503.6645	459.4022	419.6296	391.3868	380.9121	383.7144	396.8248	410.5778	423.6937	438.9248	449.9017	457.8917	451.3722	441.2729	419.1597	390.9987	352.0749	315.0738	278.7553	246.0081	213.9	179.6775	154.4977	129.7455	105.5838	80.9954	63.4396	48.6889	35.9029	26.1725	18.0717	9.7213	3.8403	2.4459	0.3869	0	0	0	0	0	0	0	0	0	0	0	0	0
438	804.2655	731.3163	661.3114	616.2549	575.6442	517.5584	467.5805	422.1547	399.2395	385.6124	388.016	397.3842	416.1397	430.2755	447.5418	459.4571	464.1042	461.9446	453.4157	428.9855	402.2339	367.1612	324.5068	288.4582	255.0542	224.4004	186.7278	161.5352	135.9962	111.082	86.5841	66.9898	53.8742	40.1744	29.1828	20.5548	12.1941	4.9224	2.5586	0.7798	0	0	0	0	0	0	0	0	0	0	0	0	0
440	805.7678	729.5564	674.7542	627.0254	587.0502	523.2726	472.3524	432.1486	406.3879	389.3709	386.834	400.2884	414.9786	434.818	450.6035	465.5019	474.4619	471.8152	463.4059	440.858	410.5848	375.8454	334.12	295.8905	263.2341	232.7691	197.9807	166.8899	141.1479	115.8215	92.2528	72.2939	58.3304	44.8095	32.6533	24.4066	15.6518	8.2336	2.6729	1.1786	0	0	0	0	0	0	0	0	0	0	0	0	0
442	799.8045	750.222	674.2944	630.2676	592.4947	537.2156	482.169	442.9562	412.0065	394.735	394.7348	408.9705	422.9119	433.9136	453.404	468.2757	480.9022	481.0936	469.6598	449.8335	420.8224	383.8757	343.9938	305.5361	271.4917	239.0423	204.1977	172.1772	146.2519	120.0483	97.9256	76.6045	62.7453	48.8716	36.6271	26.2774	19.0463	11.5056	2.7864	1.9769	0.9144	0	0	0	0	0	0	0	0	0	0	0	0
444	810.6233	754.1056	688.3829	644.5357	597.8131	543.7793	490.1235	442.9449	415.1266	394.6232	392.8586	408.8488	422.0103	438.7428	457.9752	476.9169	481.9312	482.2031	473.6729	458.7055	429.2952	391.9771	351.1386	312.9767	279.2097	247.333	212.2453	177.5244	150.9324	124.3239	103.6709	81.5935	66.9959	52.8657	39.7136	29.5145	21.5645	14.8629	7.0051	3.1832	1.8413	0	0	0	0	0	0	0	0	0	0	0	0
446	812.8423	744.7164	701.4583	645.2209	614.633	546.0965	501.1179	451.855	421.9611	399.5411	406.3664	410.7232	425.4268	437.7703	459.5325	476.9866	493.8496	492.3692	482.6762	463.4137	436.6485	400.1261	358.4432	320.858	286.1622	252.5231	218.8469	183.0506	155.5234	130.3451	108.5879	86.7019	70.5368	55.2904	43.9582	32.6746	24.4328	17.5144	9.9269	4.4086	2.7824	0.4969	0	0	0	0	0	0	0	0	0	0	0
448	812.1614	747.6898	697.6978	656.8999	617.7669	552.3679	492.3915	455.7703	424.6641	406.3229	401.202	411.2926	427.6962	444.7255	462.4615	484.2391	487.7557	496.1469	488.5032	472.1916	442.9901	406.7722	366.0239	326.8714	293.3883	261.1535	227.7639	190.6434	160.2713	136.5338	111.6814	91.9386	75.5692	61.077	47.0657	35.7724	26.8017	20.3411	12.8588	5.6553	3.0409	1.0018	0	0	0	0	0	0	0	0	0	0	0
450	829.5701	755.935	706.0287	660.0911	620.6459	568.1854	504.9674	462.6127	429.7504	407.3372	404.6151	415.3873	430.2145	442.0593	459.8695	484.7024	495.0356	500.9573	492.3876	476.9664	448.8409	412.3813	371.8101	333.3134	298.5527	266.1412	233.2225	197.1147	165.0775	140.8392	114.8113	97.2507	79.9938	64.4889	52.4017	39.13	30.2553	22.8361	16.3348	9.1396	3.3032	1.5146	0	0	0	0	0	0	0	0	0	0	0
452	793.4462	774.5736	701.8409	666.1936	631.0049	566.829	510.3092	464.6113	431.2527	411.9255	409.0994	413.8287	430.6796	443.6965	465.1596	478.4596	498.1453	503.9964	494.2754	483.3974	458.6375	420.4233	377.487	337.193	303.7883	270.7318	239.1284	203.2672	170.0209	144.2707	120.4043	102.417	84.52	69.3678	55.24	43.9636	33.1019	25.5169	18.8536	11.2753	3.5709	2.4474	1.0796	0	0	0	0	0	0	0	0	0	0
454	790.4013	750.7613	715.462	675.8578	615.2955	563.9736	505.9513	478.8646	436.548	415.025	408.382	418.3237	430.6315	446.0267	464.9845	486.4661	495.3011	501.9683	502.181	482.0935	457.8684	419.9317	384.0072	342.3038	308.1315	276.2803	244.6013	210.5171	175.9871	147.7408	126.0778	107.1156	89.1123	72.7507	59.4333	47.167	35.6585	28.2652	21.6795	14.5031	8.7479	3.81	2.1771	0	0	0	0	0	0	0	0	0	0
456	830.2931	770.4722	710.7609	670.8011	628.5131	574.4856	520.0877	472.7417	441.0074	418.1053	409.8735	420.475	429.364	443.8913	465.4381	484.9845	497.0162	503.8373	501.8244	488.0794	462.7173	429.8417	386.5006	348.589	315.1818	283.3326	248.8864	214.5915	180.5135	151.4844	131.486	112.0527	93.9158	74.6423	62.3231	50.8891	39.8704	30.7885	23.8704	16.9267	10.2181	5.2027	3.2975	0.5253	0	0	0	0	0	0	0	0	0
458	789.394	762.8911	710.6261	675.5633	623.0615	573.2941	524.3196	474.8591	442.0667	419.8167	414.1305	417.9207	427.0491	449.0165	465.907	480.9403	498.4108	508.4132	499.7634	490.0521	463.8624	429.191	390.1006	350.0696	318.9727	285.4772	253.6556	218.5161	186.3798	155.5124	136.2166	115.8636	96.8514	78.4515	67.2055	53.9703	42.9954	33.3908	26.8097	19.6678	12.4756	6.6318	3.4493	1.0624	0	0	0	0	0	0	0	0	0
460	803.5618	766.5849	696.2304	668.5712	630.8805	586.2232	516.838	479.3217	448.8735	427.9128	412.7398	419.5674	434.3286	442.3467	461.9998	483.6738	498.9573	504.6257	501.3695	489.6799	468.506	434.1073	393.7554	356.332	322.8179	293.0924	256.5199	222.4368	190.6805	160.7203	138.9181	118.3338	99.0716	82.3282	70.011	57.8954	46.1485	36.1247	27.893	21.9396	15.5582	9.0563	3.6037	1.6112	0	0	0	0	0	0	0	0	0
462	795.6636	757.718	709.1568	673.2383	634.0221	577.2	533.4288	479.6582	443.8315	426.0628	414.311	416.5889	431.0121	441.2859	461.7028	477.6888	495.8376	504.3551	503.6738	490.9205	471.3171	434.7776	396.4003	357.7111	326.0934	292.0868	261.6874	226.5736	194.8956	164.742	141.8029	120.9643	101.3257	86.3671	73.5457	61.374	49.0374	39.3359	30.2371	24.0902	17.9834	11.5431	3.7647	2.3949	0.9002	0	0	0	0	0	0	0	0
464	786.2107	772.2593	715.1186	684.0937	634.2699	581.008	522.3145	476.3473	452.7203	425.7712	420.5663	417.4684	427.3436	437.8506	461.8228	474.8658	495.5535	500.5084	499.8895	490.9081	469.5244	437.1882	396.3314	359.3244	328.0737	297.1794	264.8625	230.3315	198.4438	170.2657	144.7172	123.5208	103.6055	90.4805	76.207	64.2979	52.7015	42.2126	33.2776	26.804	20.13	13.6371	7.751	3.4204	1.8218	0	0	0	0	0	0	0	0
466	774.2402	761.597	725.3254	673.3545	637.3214	585.0133	531.7053	479.1136	453.1879	427.8472	417.8749	418.3334	425.561	435.8135	458.9231	472.8304	488.8152	503.2616	496.5359	488.445	467.1382	434.7637	395.5543	359.5636	329.5971	300.6277	266.2806	232.881	200.6426	175.3566	147.7068	126.0908	107.9737	93.705	78.9355	68.6844	55.3385	45.7714	36.425	28.3292	21.9766	16.6905	9.881	4.4707	2.7658	0.5792	0	0	0	0	0	0	0
468	762.0132	741.1612	711.6597	669.893	643.0121	582.5217	533.8244	478.6136	452.0496	427.6598	418.0882	419.9581	420.0596	435.674	453.3661	472.086	489.897	495.7895	497.1659	490.8114	464.2967	436.1764	398.0472	363.3493	332.0266	303.7406	268.4756	233.5988	202.822	177.2074	152.8599	128.7264	112.4528	95.0011	81.7327	69.8929	59.2222	47.7284	39.154	30.0791	24.6123	17.8696	12.7166	5.5468	3.2247	1.1726	0	0	0	0	0	0	0
470	749.2753	735.6572	710.8285	670.739	625.0351	582.356	531.4233	485.8942	456.5881	427.3017	418.3677	412.5258	419.3163	430.2313	449.5328	466.3418	480.5644	489.8452	494.5591	486.1746	463.5707	434.6723	396.6122	363.2873	332.8108	303.2832	273.5753	236.3843	206.4338	180.3652	156.4798	131.389	114.9803	96.301	84.575	72.1598	61.2894	50.5336	41.0856	32.9596	25.9507	20.1724	14.496	8.813	3.6938	1.7802	0	0	0	0	0	0	0
472	737.867	744.8465	692.3093	667.7385	626.7445	582.5664	528.8822	481.6436	454.4411	423.9124	411.5751	416.1723	422.582	425.1932	440.3604	458.1346	477.1631	481.7192	485.8796	478.4656	457.7832	430.0916	396.4394	361.9994	330.1705	302.3458	272.2247	239.2902	208.3079	181.9726	158.7468	134.3989	116.787	99.5541	87.522	74.638	63.2319	52.8089	44.4711	34.6116	27.9523	22.2862	17.2856	11.3735	4.1831	2.7629	1.1341	0	0	0	0	0	0
474	725.8399	725.6509	685.734	655.1381	624.65	561.2776	519.3431	483.7218	457.5193	424.3638	412.0677	407.6734	412.6249	419.9197	438.6638	454.4266	470.7162	482.6811	478.8733	471.9727	456.2079	429.2591	393.1095	357.5225	332.1101	303.1474	273.6807	240.789	208.7046	185.2154	161.7123	136.3418	118.5984	102.8612	90.2173	77.1577	64.877	54.7729	45.6453	37.7921	29.1448	24.3457	18.8133	13.2564	7.6624	4.1332	2.3004	0	0	0	0	0	0
476	712.514	713.1679	662.1134	650.8725	615.7598	573.4447	529.3599	480.6931	449.5064	425.3673	407.3425	407.3548	410.6839	417.8341	434.0134	447.337	466.1299	472.2528	475.5442	465.8734	449.8932	420.695	390.96	358.9018	329.0173	302.3413	273.0713	237.8205	209.5677	185.8511	163.1363	138.279	120.304	105.8217	92.8691	79.646	66.0663	57.8035	47.5962	39.634	31.0832	25.4399	20.5505	15.0147	10.5573	5.5357	3.4956	0.7329	0	0	0	0	0
478	697.9603	699.4746	670.747	637.8399	617.0603	565.6994	523.6189	474.8466	450.0762	417.75	401.524	400.2935	404.7271	406.0491	422.4869	441.0342	455.7547	465.2611	467.901	460.4422	445.1919	418.6296	384.055	356.564	326.0295	300.599	270.9503	243.0652	210.3965	185.6156	164.817	142.2222	121.9034	108.1639	94.6507	80.8585	68.101	60.1951	50.5624	41.9786	32.9838	27.4681	21.5464	16.9117	12.0414	6.9667	4.0801	1.4833	0	0	0	0	0
480	682.8878	685.2787	672.835	648.4729	596.4062	561.0182	526.812	475.7864	440.4878	416.6459	401.1401	402.1696	402.338	405.4744	418.6586	437.2184	448.5304	456.6073	461.3352	454.8311	439.5549	418.5478	380.3253	353.1022	327.6289	301.8621	273.7767	239.1367	211.401	189.1458	166.6384	143.4562	125.4029	109.2915	95.6162	81.8775	70.1655	61.5119	51.971	44.028	34.4773	28.1978	23.2158	19.1419	13.521	8.6439	4.6773	2.2512	0	0	0	0	0
482	665.8581	669.1336	662.508	638.5207	604.6448	575.3667	512.4638	475.2845	440.4209	416.1827	397.4887	392.6199	392.2054	400.7487	415.8592	427.2054	440.4808	451.0789	451.5503	446.4301	432.6809	407.9475	378.9867	348.8788	328.5929	299.434	271.8075	241.3068	212.0433	189.3787	167.6362	145.2756	128.4259	110.1866	96.378	83.168	72.1101	61.7724	54.0032	45.2985	37.3462	29.8913	24.9572	21.0294	15.6793	10.4482	5.2765	3.0801	0.9387	0	0	0	0
484	648.4217	652.5935	635.8646	634.559	592.7	547.1297	511.616	475.8141	439.0554	407.3763	397.0346	390.5181	389.3764	394.8623	405.8051	422.921	432.2844	442.5742	445.5066	439.6438	425.1184	405.3127	372.9206	344.7446	322.7663	297.3458	271.5138	242.1697	212.1434	190.2211	168.4381	146.4227	128.9516	111.079	97.5802	84.4682	74.0792	63.4026	55.2693	47.7147	38.7119	31.0279	26.5326	21.7457	16.8457	12.8435	7.5927	3.9746	1.8953	0	0	0	0
486	630.453	635.5323	623.6315	611.0556	591.9522	551.9866	516.4197	468.9745	435.0491	407.9099	394.0016	387.0316	386.7701	388.8333	398.9503	414.0484	424.7931	432.5563	435.9681	432.446	419.3065	397.9354	371.2865	342.0969	318.466	296.0796	268.8424	242.4664	213.155	190.314	168.7251	148.9609	130.1577	111.9464	98.992	86.5395	75.6648	65.04	56.8297	48.0861	40.2733	33.0764	27.4582	22.6124	19.2054	13.9642	9.122	4.8844	2.8692	0.5418	0	0	0
488	611.9703	617.9672	610.9651	624.5406	583.8921	552.5766	506.0137	466.1096	434.3004	404.42	389.6567	381.0216	383.188	383.9871	395.9292	403.2757	417.5821	427.8405	432.7478	426.1861	412.1127	394.3098	365.7505	336.5735	318.1125	297.796	269.7772	242.9936	215.5738	190.1763	169.5427	147.8824	134.0936	114.6137	100.3939	88.6175	76.4583	66.6841	59.0402	50.2522	42.4937	35.3502	28.1246	24.2352	19.6014	15.3257	11.4117	5.809	3.2017	1.0933	0	0	0
490	593.1102	600.0351	597.9979	594.8273	592.3129	544.4794	503.0306	460.816	428.1955	399.241	389.8063	376.8392	376.2256	378.6444	384.8535	400.5606	413.213	419.6112	422.0471	417.7701	402.3656	385.9064	361.2878	337.1001	315.9936	292.258	267.6288	240.9202	213.6944	189.91	169.4528	150.7324	134.4137	117.5687	101.805	89.9204	77.2541	68.3472	59.164	50.5219	43.1406	36.7566	29.7326	24.8975	21.131	16.8234	12.3692	8.3323	3.5397	1.6545	0	0	0
492	574.442	583.9979	585.309	584.7027	576.6388	541.1964	500.085	459.3496	422.9964	400.0714	386.1053	374.7544	373.4302	373.4605	377.6222	392.1562	404.2288	409.3192	414.1894	410.8317	398.6134	381.3101	357.9328	330.0895	309.7565	291.2563	267.1823	239.9896	212.2041	190.2647	171.2332	148.9164	134.5051	118.9989	103.3242	90.9161	79.0858	70.0959	60.2502	53.3668	44.8737	38.2617	30.819	26.1917	22.6082	17.9434	14.0148	10.1539	3.8868	2.483	0.9474	0	0
494	555.3531	569.275	572.2853	576.2445	562.7718	525.4167	492.9471	451.9175	425.852	393.6898	384.4041	371.1156	367.9819	365.3893	373.1867	382.4103	396.4981	402.3128	405.1072	401.6839	389.141	371.5496	351.684	326.6386	305.3899	287.8786	264.5441	239.1772	211.346	191.291	170.9547	150.2404	135.738	119.9477	105.7437	91.9144	80.9387	70.859	61.3464	53.9768	46.8024	38.9504	33.2181	26.6327	22.6465	18.6112	15.4731	11.2475	7.2541	3.5853	1.9131	0	0
496	535.6792	554.0206	566.9757	562.2308	566.1118	515.5383	484.4932	450.9179	424.2702	396.9307	372.2132	367.2529	362.2191	358.021	366.6502	376.7359	385.3257	394.0592	396.9672	395.7205	384.454	370.1802	342.2317	321.1907	303.2009	284.1816	261.5787	237.5384	209.8683	190.208	169.0641	150.8773	135.0472	120.0968	105.7267	92.8868	82.2814	71.0942	62.4337	54.2722	48.5755	39.7263	34.099	28.3544	24.1424	21.1853	16.5782	12.1334	7.8823	4.7069	2.8962	0.6231	0
498	515.4477	552.5833	547.1457	547.7209	546.9943	508.7241	472.6235	442.8793	415.0578	384.5159	368.2233	360.442	357.7474	353.117	359.4699	368.0192	379.3364	384.6368	387.9126	384.9874	377.3829	359.6	337.658	316.7026	299.9462	278.7157	256.8476	234.929	208.8892	188.8527	169.0044	149.92	134.8468	121.1073	107.7685	93.8332	82.5885	71.3005	63.5115	54.8364	48.3191	41.0326	35.2635	28.8922	23.4563	21.2726	17.931	13.9845	9.5887	5.8467	3.4139	1.2572	0
500	518.836	530.154	526.9369	532.8989	534.0553	504.7204	478.305	433.8368	406.4708	380.1578	362.4309	354.2643	349.5195	346.0062	351.7004	359.7839	367.1342	376.6688	379.6032	374.1591	366.3168	351.1832	332.3245	312.1223	294.0527	276.2597	254.9214	228.726	207.6431	186.5604	168.0068	151.2892	137.532	121.0487	107.564	94.6603	82.8882	72.456	64.2282	55.4021	49.0009	44.0944	36.2029	30.6784	25.1127	22.1264	18.6422	14.5278	10.9342	8.2645	3.9402	1.9024	0
502	518.7462	507.1679	508.0555	517.6069	524.4992	502.9269	467.0818	425.9276	398.3071	376.1686	358.3258	347.0617	338.0932	334.4199	343.2357	347.6606	358.5536	363.8198	366.7441	366.2619	355.5141	343.7979	321.6202	305.1123	289.7528	274.3316	251.2619	228.3433	206.7409	184.0246	167.6762	149.0866	133.7381	122.1789	108.1168	95.6922	83.1559	73.5986	64.1811	55.9527	49.9832	43.9469	37.806	32.7623	26.1236	22.8621	19.2559	16.6035	12.3745	9.1107	4.4737	2.8168	1.4882
504	511.5202	483.8021	490.707	502.0193	506.6665	486.7443	453.5837	418.4343	390.4167	371.5079	347.3786	337.7984	330.5395	327.4776	333.2241	341.7299	350.7566	355.1826	358.6806	353.5322	349.2097	338.5447	318.1669	297.4493	282.6995	267.8079	248.6908	226.3036	202.9465	183.6202	164.1059	147.8496	133.8362	119.3917	109.5414	95.4911	83.4165	73.9973	64.1243	56.5047	48.8936	44.3994	39.0557	34.0721	27.6323	22.389	20.3048	17.0539	13.3907	11.0744	6.8613	4.0075	3.0013
506	475.0105	460.6172	473.618	492.5785	490.3226	475.5406	447.373	416.4003	385.6329	364.7652	341.9583	335.439	325.2212	323.7036	325.5243	332.3562	340.491	345.9745	343.5037	348.6476	338.7898	326.4492	309.9882	292.5282	279.4317	263.6603	244.538	222.8328	200.7934	181.5135	163.1802	147.6671	133.3434	119.2311	108.0264	96.8423	83.7685	74.1	64.8177	57.1253	49.3295	44.7498	39.0724	35.1722	28.8466	23.2435	20.8367	17.3124	15.3152	11.9597	8.8018	5.2237	4.5448
508	446.2907	437.5139	474.0059	473.1454	474.1894	470.7093	440.9926	408.5183	383.6663	353.8099	339.2723	328.3409	320.7211	318.3524	316.9833	320.989	331.2681	338.1089	338.4149	338.0797	329.7652	320.5934	299.5028	286.112	271.6542	257.0452	238.5603	216.1023	196.8631	178.4825	161.7929	146.5705	132.2741	119.2661	107.036	95.9195	84.7995	74.2783	65.5892	57.2981	49.8228	45.9355	39.603	35.4924	31.292	24.0868	20.1878	19.4575	15.775	12.7548	9.8154	6.4695	6.1239
510	437.9841	448.9615	451.996	453.254	457.6497	454.8531	435.2244	401.5136	373.6566	352.7303	335.5449	323.2061	314.0197	308.4682	312.5007	315.3949	322.5677	327.0601	328.6522	324.9308	322.3922	309.1384	292.1702	277.7681	266.4033	250.7708	235.2194	214.3977	195.6577	175.8712	158.8351	143.0231	130.5822	117.9904	108.0215	94.811	85.178	74.4441	66.0998	57.2012	50.3157	44.4684	41.2266	36.1274	31.7823	25.524	20.7496	19.1379	17.1586	13.626	10.9127	8.2176	7.7351
512	429.363	421.4332	429.4459	433.6542	440.649	443.4117	418.8644	383.6544	367.6182	344.641	327.5664	312.6793	306.1089	298.7259	302.4284	302.4297	312.7249	314.6983	317.6634	316.4712	313.5813	300.3715	286.1135	272.3738	257.2738	247.7741	230.8551	212.069	192.1117	174.0449	156.2575	141.2641	127.7543	115.6556	105.8428	94.7693	83.4905	74.5876	66.0673	57.083	50.8016	44.6548	41.4516	35.8848	31.8028	27.3973	21.0804	18.8267	17.4336	15.5091	11.6107	9.3986	9.3772
514	420.488	431.9655	406.4224	414.4299	423.2533	429.8091	412.8878	381.1454	356.7385	334.64	318.3996	305.1586	299.0074	293.1946	291.971	295.3066	305.9468	307.4552	310.7602	308.5954	303.7344	292.0282	279.932	263.8669	252.3437	241.2905	225.0405	206.2194	186.8726	170.6735	155.3333	140.315	127.3935	116.1869	104.9232	94.9905	83.8836	74.7438	66.0206	57.6318	50.9934	44.8358	41.6193	37.7069	32.8875	27.8405	22.6974	18.4949	17.3385	15.6561	12.3719	9.9314	9.9088
516	411.6836	441.251	383.2308	395.0987	419.6884	413.8114	398.4085	372.2985	350.6847	330.2732	310.0561	300.8158	289.8576	283.7599	286.8543	291.1182	292.1704	295.7904	301.9027	299.5542	296.1785	285.2118	271.1128	258.5513	246.5935	235.6367	221.8119	201.6593	183.8587	166.0344	153.1568	138.2701	125.3376	115.5743	105.2922	93.1104	84.3575	74.9297	66.0105	58.2247	50.6246	45.046	41.0879	38.1005	32.9418	28.4572	23.6677	18.4689	17.322	16.5727	13.7615	11.1017	11.0765
518	402.919	376.6468	359.8097	403.4162	403.9222	397.7208	382.523	364.8172	344.4476	322.8586	305.4023	293.7181	285.0657	275.4984	276.4265	280.7352	285.1817	291.2141	292.7796	288.9662	287.0317	278.0212	263.5376	250.6559	241.0599	231.1283	217.355	196.7863	180.3314	164.5856	148.9028	136.2241	126.1832	113.1904	102.8001	93.6767	82.8024	73.9684	66.0351	58.256	50.2746	45.2848	40.6305	38.6959	34.0797	29.39	24.9958	18.9534	16.8347	16.9528	14.298	12.1126	12.085
520	393.8607	309.6762	381.8596	385.5285	387.728	381.1981	382.9414	360.1386	334.3773	311.4302	297.8451	288.0795	278.0738	270.8998	267.4937	271.4798	276.5827	282.8441	282.2793	281.3764	275.9783	267.5565	255.3584	245.8726	235.6184	227.3961	209.6749	196.4894	176.1115	161.354	147.4753	135.0668	122.912	111.7976	102.7244	93.5493	83.9218	74.8385	66.0434	57.9668	50.5629	45.5174	40.7182	37.2975	34.1306	29.7931	25.9817	18.7488	15.809	17.2234	15.3515	12.418	12.3897
522	384.4849	307.0577	363.2627	367.1621	370.0659	364.2214	365.3003	349.1237	327.4331	305.9223	288.3618	278.0948	269.4268	261.3003	266.4622	265.9476	264.3583	270.1873	272.189	273.5834	270.2596	259.895	248.1847	237.8567	228.1282	217.4206	205.9883	190.8225	172.5465	160.5631	146.2835	131.4634	121.1804	111.7481	100.1133	92.3357	83.458	74.2772	66.7351	57.653	50.8417	45.2631	40.795	37.3449	34.0474	30.3925	27.1978	21.1578	14.2299	16.3085	15.7054	13.2135	13.1834
524	374.8197	304.3068	365.6352	348.348	350.9413	346.8215	362.877	335.7404	322.2921	298.4471	282.3385	271.7595	261.8491	257.4844	250.4668	259.0858	263.0852	264.2702	264.7781	266.6247	259.9484	253.6926	241.8091	230.6589	222.8996	214.8825	202.1075	187.6464	167.4267	155.1221	142.0697	128.1487	119.175	107.8009	98.8135	89.9616	81.8417	73.2871	66.5185	57.3183	50.8723	44.7507	40.8637	37.7566	33.9266	30.3535	27.8843	23.1405	15.2145	14.1816	15.8991	13.1475	13.1175
526	365.1178	301.6306	349.3964	329.3162	331.5951	345.5614	347.6137	335.3078	310.6872	288.145	276.7133	264.1601	256.6028	252.748	247.7734	249.0389	252.7406	255.2853	253.2862	255.1928	254.1268	248.6452	235.0465	224.1733	218.5001	210.8318	198.2759	182.4648	166.243	152.8312	138.5913	126.9742	114.9256	107.3953	98.0008	89.0553	80.8082	72.3756	65.0919	57.0012	50.436	44.2464	40.9519	37.358	34.7749	30.8554	27.1513	22.9313	16.5556	13.2286	15.5886	14.2797	14.2472
528	355.3511	299.0166	338.1265	310.0219	331.6082	333.1017	332.1666	320.1487	308.2755	281.2911	269.7773	260.7243	252.3613	244.2823	241.6476	243.2525	243.469	246.3229	249.4819	251.5958	246.7554	240.8143	230.3663	221.5117	213.1563	203.2435	192.9677	180.2279	162.4077	150.1546	136.8805	124.3047	114.285	105.6327	96.2278	87.4427	79.136	72.6706	63.7045	56.0047	50.0098	44.3951	40.8309	36.9652	34.2496	31.0157	27.3858	24.4214	17.7342	11.5723	14.6686	14.0338	14.0018
530	345.2593	296.2534	285.7642	311.2818	317.3644	320.2673	316.2854	307.363	296.5391	280.1347	265.2956	256.0968	243.262	234.8725	233.0245	239.7451	239.773	241.476	243.8193	241.9566	237.3846	230.8036	220.4154	211.615	207.5691	197.0587	186.3882	176.5665	158.4901	147.2848	133.102	120.9734	113.2772	105.012	95.1445	86.0956	77.7438	71.6191	63.631	57.1969	49.559	44.5347	40.2343	36.5524	33.8756	31.3658	28.3943	24.8662	19.4732	11.757	12.5818	14.6145	14.5813
532	334.8948	293.3859	241.33	314.9285	302.7666	304.9806	300.0187	304.2699	287.3753	272.8767	260.2315	247.8193	235.7301	229.0647	229.1455	226.0343	230.4768	232.7861	231.6283	235.6287	231.3286	226.0398	217.8464	208.6261	201.7369	194.3875	186.3611	171.1143	153.6469	143.202	132.066	119.0733	110.8199	101.7934	92.2813	84.5088	77.1897	69.9791	63.2759	55.7657	49.0909	44.2077	39.6181	36.1249	32.5183	30.1099	28.0889	24.8661	20.5362	12.7966	11.4072	13.4777	13.4471
534	324.2035	290.3677	251.3226	297.4588	287.7658	287.1314	283.3173	289.394	278.2694	262.354	252.2993	241.81	226.3466	225.1954	220.3856	221.9967	224.1349	229.0504	226.2591	226.4403	223.0611	218.7589	207.5272	200.8609	194.0178	189.4516	178.7318	166.1846	153.0666	141.5052	127.7287	117.5733	108.966	99.3967	90.4153	83.1245	74.8712	70.1384	62.1201	56.0039	48.5978	43.6257	39.2204	35.6772	32.3348	30.7679	27.7591	24.8889	22.7275	15.6128	9.2359	13.5419	13.5111
536	313.3505	287.3488	261.6304	299.1773	272.5063	268.9687	276.3862	278.1504	273.1161	254.8662	243.8192	234.1725	224.7551	217.2813	209.9943	213.8781	216.1566	218.4968	223.0657	220.4808	214.2486	212.3667	204.5472	197.0589	192.4941	186.393	175.5785	160.4308	149.0284	136.9015	123.856	116.267	106.6503	97.8247	88.572	82.9807	74.5331	68.5689	61.9099	55.9053	49.1926	43.0402	38.8226	35.2343	32.1546	30.4468	28.059	24.8951	20.6208	16.5478	8.5787	11.1955	11.17
538	302.3137	267.889	272.2659	290.9944	256.961	270.5984	265.6524	266.7066	268.6109	254.3216	239.3052	228.6281	217.6628	213.0054	209.0088	210.9065	213.2172	216.1323	212.3873	211.8488	209.6806	205.4799	196.601	189.0952	183.7928	181.7119	171.3311	158.2893	145.3399	134.6163	124.2081	113.8313	104.4267	97.5385	88.9391	80.1719	73.9196	66.6887	61.7806	54.3806	47.1244	42.4495	38.4268	34.7916	31.9768	29.3545	27.7317	24.403	21.2296	18.6528	9.8923	8.9702	8.9498
540	290.9233	279.3236	283.0978	285.4794	268.492	258.7355	254.5833	254.9117	263.5838	241.623	235.0491	223.8994	213.8511	208.681	202.4725	201.2223	206.2362	207.0692	207.7008	204.7973	202.1022	200.7055	189.4805	183.8555	181.1925	176.1243	165.1492	155.0396	140.2816	131.6355	121.5406	108.6889	101.4385	93.8324	86.7367	80.1794	71.7962	67.4695	60.2312	53.9828	48.2608	41.8309	38.0164	34.3271	31.7848	28.9169	27.9532	25.1128	22.138	19.0932	11.5867	6.1716	6.1575
542	279.8435	270.954	256.8387	244.1886	261.4742	247.1038	243.1835	243.3423	253.0245	239.7472	224.7111	218.3371	208.4411	200.4799	197.5932	198.9505	197.4233	201.5785	202.2661	201.1265	202.2796	194.5355	186.9278	181.2572	177.0417	170.5385	163.2599	152.1517	139.4626	128.0086	117.7834	108.6492	101.8024	93.1188	85.8426	77.7813	71.2921	65.0505	59.6473	53.5568	47.5752	41.9955	37.6721	34.237	31.4998	28.5261	26.8727	25.0288	21.4902	19.1991	14.9171	4.5837	4.5733
544	305.0761	255.4684	207.037	165.7392	253.654	235.0483	230.787	231.3522	240.7687	233.8719	218.2331	209.4262	202.0896	196.2887	192.578	192.8436	192.6501	194.0766	193.4063	192.043	195.1476	188.8751	183.38	173.6878	170.6901	168.0523	158.1745	147.4418	134.575	123.3501	115.8808	104.9766	96.9051	90.7713	84.1915	77.1263	69.3817	64.9188	57.6885	53.5267	47.0499	41.9078	37.3021	34.1298	30.8846	28.1121	26.1112	24.3541	21.998	19.5478	15.4634	6.9406	6.9248
546	314.4624	259.8002	206.9825	181.2316	260.6555	222.4474	217.8408	224.2001	231.3041	225.8547	212.1429	208.1213	199.8256	192.1459	187.6758	183.8964	186.649	187.6867	188.4349	187.8234	186.8509	182.6482	177.0187	170.6677	165.129	162.3286	153.4193	144.6186	131.8461	122.7328	112.7813	103.6769	96.1084	87.854	82.0298	75.1991	69.9674	62.8284	58.3041	52.1566	47.0068	40.8416	36.8861	33.677	30.2226	27.6596	25.2663	23.7084	21.8386	19.6077	16.3693	9.2251	9.2041
548	312.8829	255.9289	203.0558	197.0043	248.5082	209.3299	215.7319	215.0847	221.3881	216.2944	208.7855	201.0813	195.1065	183.3675	178.8246	182.1515	183.2473	182.9516	182.7555	180.8032	180.6281	178.3714	170.9688	163.4659	162.3259	157.3305	150.1416	138.3105	128.2036	118.5291	111.3076	100.8999	93.9217	87.209	80.0537	73.3338	68.3033	61.9839	56.3997	51.5882	45.353	40.1297	36.4256	33.0247	29.772	27.1701	24.8196	24.9209	21.495	19.9136	17.1304	12.1693	12.1416
550	306.0934	251.8751	209.7022	213.1526	237.2837	212.9171	206.0126	205.6755	211.1577	215.0663	206.5702	193.079	185.7664	181.5656	181.2973	174.7242	173.5299	176.0001	177.7125	175.2008	173.9488	170.8447	166.7535	162.1167	156.8493	155.5782	144.0399	134.1903	125.7415	116.8834	108.2798	98.0653	91.5848	84.3636	77.8925	72.1298	65.5863	60.6479	54.9358	49.7339	44.8361	41.3941	36.6183	32.3449	29.3001	26.6698	24.3534	22.5092	21.264	19.5201	16.7544	13.9006	13.869
552	291.2005	248.3462	228.004	230.334	231.7715	210.1426	196.5513	196.1621	201.1857	208.71	197.6712	189.5037	179.8063	172.8879	172.4045	168.8585	171.1714	172.4732	171.9693	171.0152	168.7051	167.3131	159.6073	155.1855	152.3734	148.8699	141.1758	133.9942	121.8161	112.2328	104.6838	94.775	89.9162	82.8054	76.7974	70.7945	64.5885	58.6952	53.9406	50.0976	44.0823	40.2706	35.8786	31.7265	28.8933	26.2273	23.9347	21.415	21.0418	19.3962	16.7768	14.3407	14.308
554	292.2289	244.5929	226.4337	210.4664	196.3839	214.3368	186.7191	185.9028	190.8263	200.688	191.5762	183.2787	177.4107	169.0129	163.6052	162.1395	163.6773	167.7712	165.4451	164.5902	165.3752	159.5742	154.6014	150.2556	146.7559	143.7553	137.9723	127.4888	116.8204	110.8191	102.985	92.1857	87.2651	78.6295	73.3747	68.7655	62.4558	57.087	53.0822	48.1519	43.6861	39.4809	35.7267	31.0743	28.4715	25.759	23.492	21.0073	20.8041	18.8758	17.0094	14.8218	14.788
556	283.4787	257.4464	197.2989	146.256	102.6827	215.7635	176.5827	175.3277	186.1703	190.649	184.9109	180.6807	169.7237	167.2257	158.3215	159.8523	162.7613	162.1206	162.3025	158.8872	161.7158	155.2734	151.1166	148.0741	142.0438	139.8569	133.7262	125.8289	115.3553	106.8391	100.3134	91.7984	83.6446	78.0605	72.164	66.6019	61.7619	55.5807	51.3688	48.4491	43.3769	38.4575	34.3511	32.1064	28.0343	25.3479	23.032	20.5853	19.6489	18.7392	16.3506	14.8529	14.8191
558	270.4975	262.0125	198.4031	144.4744	120.8368	209.4883	166.1292	173.9415	176.8397	180.2941	179.2625	176.2253	167.2817	157.3598	155.5525	153.5622	155.3853	155.1496	152.1327	154.58	153.9728	150.8518	142.4388	142.4967	138.7628	138.2575	128.4787	122.6903	111.1473	103.7861	97.1847	90.1612	83.2625	76.9958	70.2746	66.4152	58.7026	55.2351	50.4619	45.7113	42.0419	38.5343	33.7649	31.6911	27.5809	24.9215	22.5523	20.1482	19.0992	18.2333	17.6321	14.6694	14.636
560	278.1833	277.1587	194.4598	140.2894	139.5405	201.0559	168.0273	164.3676	167.1498	169.5496	171.4906	166.6422	162.2304	156.0234	149.1713	147.7921	150.3581	150.238	151.1008	151.616	148.0227	143.4463	141.0409	135.5836	136.8382	132.9973	125.1325	118.3993	107.905	99.9941	92.7251	87.3774	81.5117	75.7818	68.5416	62.7999	59.2451	54.9475	49.9126	45.1507	41.0572	38.7624	33.8023	30.8493	27.1006	24.467	22.0472	19.6882	17.1598	18.8929	16.6215	15.3906	15.3555
562	271.8304	259.2764	190.3005	148.4166	158.7906	191.0492	167.1903	154.4332	156.6992	158.41	163.3394	162.1319	156.099	148.1736	144.1362	145.3851	142.5399	145.5219	143.527	143.3593	142.0616	141.9105	136.0216	131.426	130.496	127.8451	122.4446	115.2205	104.5777	95.8559	90.7444	85.0114	76.5687	71.5737	67.5986	62.0449	57.7354	53.5823	49.3562	43.9063	40.0398	36.1807	33.4209	30.6323	26.5921	23.9847	21.6025	19.2044	17.0138	17.7728	16.6289	14.8793	14.8454
564	246.9695	244.1445	185.9352	169.4569	178.5971	185.1344	168.0909	144.148	145.4821	146.8856	162.7863	152.8141	147.9429	146.0036	139.5128	139.4284	140.5317	142.4395	142.1562	140.8361	135.1471	137.3464	129.8216	130.0305	125.8547	123.7405	116.4257	109.2516	102.2402	95.0709	89.4208	81.9424	75.6299	70.3578	66.8122	60.5012	55.4024	51.5777	47.6047	41.8223	38.8472	35.9455	32.2138	30.2799	27.4776	23.4776	21.1351	18.7523	16.856	16.605	15.9284	15.1929	15.1583
566	231.7491	223.964	181.4755	169.4129	158.7461	148.5107	163.7039	133.5956	133.9728	149.3579	154.0289	150.3382	145.0003	138.9046	135.2058	134.2032	133.8666	135.262	132.9172	134.3874	134.9464	129.4408	126.0565	125.2549	123.3777	120.2404	115.459	108.2083	100.8364	91.2648	84.9499	78.2831	73.1968	67.856	63.089	59.161	54.5531	48.8712	46.0352	41.9091	37.7968	35.4663	32.0298	29.6065	25.5935	22.9595	20.685	18.3178	16.6965	15.4818	15.402	14.5364	14.5033
568	213.6293	248.5725	206.4159	157.6102	115.8939	79.6154	168.4354	122.7539	139.3853	138.9425	145.0358	148.7406	136.9866	135.5368	134.2979	130.4347	132.4236	128.8105	131.7537	128.8836	126.3111	127.0123	122.8824	119.4744	118.3755	114.9605	111.6983	103.8811	94.4958	89.7576	84.2631	74.9062	71.0969	66.4051	62.6832	56.6534	51.9857	48.2252	44.0854	40.4676	37.1773	33.916	31.3765	28.1293	25.6318	22.429	20.2801	17.8726	16.5346	15.0673	15.8813	14.1467	14.1145
570	214.468	218.9155	208.8977	159.3302	116.9682	95.0744	163.2027	131.0572	128.9102	128.1538	135.7066	143.1183	138.5364	129.6639	127.274	123.8953	124.0981	123.8586	123.0219	123.6564	123.3386	122.4088	118.8832	116.2512	112.5943	110.8264	106.5141	99.372	92.3138	87.752	80.4969	73.1941	69.4475	64.2336	58.471	54.6151	50.6077	46.601	42.6431	39.0926	35.8531	33.2552	30.1637	28.3919	25.7196	22.6283	19.8531	17.7168	16.3579	14.6328	15.1398	13.4227	13.3921
572	233.0633	212.9412	206.7378	161.2558	118.2197	111.2328	157.931	132.6919	118.3252	118.194	126.3132	135.1525	131.0368	124.8309	123.6546	120.9331	121.7838	121.249	119.8558	120.1579	118.9681	118.9147	113.2169	112.4851	109.0105	107.7968	104.0117	96.5121	89.8504	82.866	80.0574	71.3011	67.7617	62.1986	58.4779	53.7843	50.058	46.8732	42.4887	38.4535	34.2022	31.7892	29.697	27.9279	25.8606	22.5681	19.4455	17.5857	16.1991	14.2087	13.3284	13.5481	13.5173
574	203.8923	195.9928	200.1931	163.1534	127.8504	127.9184	157.7726	133.9503	107.3232	108.801	116.5357	131.9909	124.3256	122.7066	117.1435	118.024	116.521	114.5555	115.9236	116.4897	115.7273	112.7458	110.1249	109.2179	105.3925	103.2457	100.4357	93.0108	88.3066	79.6896	77.3368	69.11	65.8379	60.9309	55.3948	52.7969	48.1647	43.5584	40.6745	37.2375	34.1638	31.844	29.1277	26.552	25.1786	22.4848	19.0125	17.4359	16.0255	13.7618	11.4465	13.0678	13.038
576	197.0746	188.4979	180.262	165.0205	146.3108	145.1326	146.5281	134.4418	95.9047	99.0402	120.2717	125.2193	122.8846	117.3377	116.982	115.4293	111.8898	113.7469	112.228	113.4867	113.4458	110.4665	106.4851	104.3831	102.8002	101.469	95.2464	91.4993	82.5277	80.2122	72.765	67.5153	63.6564	59.5605	53.8513	51.1789	46.7092	43.1963	39.276	35.7268	33.9016	30.4127	28.4472	27.3251	23.6706	21.6124	18.554	17.2691	15.5951	13.2919	11.2314	12.765	12.736
578	202.188	184.4863	179.5679	166.8572	147.8333	130.5638	117.706	131.9614	84.0721	109.2791	111.5947	118.1594	118.6069	114.9138	110.5697	109.3028	109.5017	110.101	111.8971	108.9428	108.9749	105.798	104.6487	100.1399	96.0473	97.2046	92.6246	89.1885	81.1655	76.2052	72.0057	65.2354	62.6173	57.3722	52.6278	48.9952	45.3103	42.5266	38.9967	36.1782	32.3749	29.0379	28.2838	25.6923	22.7684	21.268	19.7022	17.087	15.1418	12.9641	11.0029	11.9777	11.9504
580	179.012	169.3225	169.2056	156.8425	122.1501	91.77	66.8917	134.1363	100.7696	100.7	102.5865	110.814	111.676	108.4317	108.1758	106.7331	106.2959	105.4365	105.3074	103.1853	102.6919	101.6479	99.56	98.8732	94.9104	94.4663	91.4724	84.6426	78.6096	73.2416	69.8246	63.5423	59.5935	55.7147	52.3692	47.7361	44.2813	42.0453	39.3306	33.6221	31.7686	28.7317	26.4395	25.2841	22.4933	20.6207	18.8773	16.8901	14.7494	12.7027	10.7611	10.7529	10.7284
582	176.5009	139.0156	143.0207	146.3318	115.8019	88.9941	77.8214	125.1001	99.5143	91.8315	94.2778	103.214	110.5891	103.4854	104.3147	101.3151	100.7388	101.6949	100.2622	102.1888	101.4984	100.2083	95.4323	94.6197	93.6987	91.935	87.341	83.0914	75.3572	70.9004	66.6809	61.5043	56.959	54.6536	49.499	48.0603	42.498	39.1635	36.2732	33.9814	30.6563	27.5915	26.8141	23.9757	21.644	20.6092	18.6897	16.6832	14.511	12.4301	10.5092	8.599	8.5794
584	127.7969	139.5798	140.5321	141.4486	116.7018	89.5392	89.0799	121.3351	101.4995	82.6417	86.6799	95.3246	107.0051	100.6734	100.8477	100.26	97.338	98.5681	98.8158	98.4977	96.8059	96.742	93.402	89.8036	88.5165	88.4647	83.715	79.1427	72.6556	69.0689	64.4144	59.8937	54.9774	51.5806	48.1454	46.6221	41.4562	39.633	35.2455	33.008	29.1847	28.0889	25.3622	24.3447	21.7617	20.4921	18.2869	16.3658	14.2577	12.1949	10.2439	7.4247	6.6562
586	150.199	137.6492	139.1827	146.3104	117.5533	95.8788	100.6521	125.1592	106.0215	73.12	78.7938	97.1335	101.4681	100.9886	97.8691	93.2149	96.8269	95.8176	94.4215	94.6009	93.8427	93.7694	88.1958	88.0214	88.4874	86.4554	82.1522	77.1458	70.3625	66.6515	62.9922	58.8638	54.0033	49.0916	47.4357	44.6086	40.8166	38.4282	34.4232	32.1712	28.7709	27.1486	24.9088	23.0248	20.8718	19.9849	17.903	16.339	13.987	11.9444	9.8966	6.2087	3.9215
588	120.5626	123.5396	123.6869	151.8957	118.3566	108.2918	112.5349	119.7095	101.2582	63.2727	85.7355	90.5201	95.7015	95.2944	94.168	90.4557	91.7821	91.5944	92.32	91.0874	91.6623	89.1658	85.8407	85.388	82.4959	82.6235	79.5513	73.8384	69.2099	64.1991	61.4233	56.485	52.665	48.6754	46.301	42.0018	39.4735	38.0489	34.0458	31.2048	28.2063	26.0226	23.7602	22.2706	20.8706	18.9434	17.7756	15.6268	13.6992	11.6447	9.4985	4.9517	0
590	130.806	113.3386	133.0928	133.74	119.1311	108.2098	100.496	96.3138	97.1928	75.0569	79.1863	83.6734	89.7234	90.9774	90.9146	90.6047	90.5892	89.7508	87.6191	86.4083	86.6156	87.7012	82.7791	82.8411	81.4287	77.5335	76.6911	73.4771	66.3101	60.908	58.8465	54.6823	51.6142	47.1772	42.6158	41.1182	37.7424	35.3767	33.2888	30.1452	27.8987	25.3888	23.6252	22.9007	20.5938	19.0834	17.1801	15.8907	13.3967	11.2619	8.6767	3.6549	0
592	134.7361	108.4056	126.6709	135.2518	131.916	101.2059	76.1994	55.4549	94.3474	82.209	72.6771	77.3731	83.8373	88.761	87.8206	86.5102	84.5924	88.4843	87.569	86.1825	84.5699	85.5353	80.7142	80.6097	78.0643	76.4588	74.9733	72.427	65.2701	60.6822	56.929	53.7073	49.756	46.0718	44.1002	38.508	37.5604	33.9214	32.5388	28.5074	27.4362	24.6567	22.2449	21.5279	20.2178	18.101	16.8773	14.414	13.2068	10.9021	7.4402	3.5023	0
594	155.5221	120.2618	111.189	121.9178	135.1789	102.5857	76.6962	67.3619	105.182	79.9131	65.8886	71.3073	77.6861	85.5935	84.5065	82.8202	81.1324	84.5424	84.6618	82.5543	82.8698	80.1161	79.1117	76.2193	75.4974	73.9676	71.4595	67.5763	62.5923	58.7936	55.2612	52.5612	47.4356	44.3367	41.5324	38.8694	35.3966	33.7547	31.1388	28.3816	26.7584	24.0284	22.5924	20.7165	19.9014	17.563	16.4786	15.2786	13.2154	10.522	6.9657	0	0
596	118.8377	110.9386	99.9119	131.5946	134.3706	103.0092	84.415	79.7073	103.9434	88.8295	58.8468	65.012	75.4324	80.9772	79.5659	82.9233	80.111	81.77	81.1705	81.364	80.0901	78.4515	77.0876	75.6762	73.1051	71.9444	68.907	65.81	61.4012	57.438	53.5583	50.0657	46.9559	43.8358	40.6096	38.3983	35.6315	33.0123	29.8635	27.5695	25.446	24.3496	20.8049	19.9299	18.6029	18.2349	16.0266	15.1691	12.8668	10.126	7.2557	0	0
598	119.539	117.0379	85.3381	115.882	136.1046	106.223	97.6051	92.5076	104.8708	80.488	51.5419	63.7154	70.5709	76.1776	77.4419	76.7716	75.9226	80.4272	76.8441	77.4576	78.7772	75.4633	75.1978	71.5071	69.7729	70.3871	66.7047	63.3948	57.7963	55.7713	51.4591	48.593	44.6934	42.6328	39.5726	36.1927	33.3528	31.2195	28.888	26.133	24.895	22.7708	20.9051	20.48	18.4722	16.6835	15.1576	14.0354	13.6748	11.3636	0	0	0
600	159.3453	94.483	97.9363	107.5218	133.9254	120.7235	111.2351	105.7356	104.4063	80.5091	51.1669	58.6796	65.4904	71.1575	76.7993	74.8557	77.5808	76.5682	75.5146	76.4813	74.9639	73.0697	70.3173	70.2337	68.9806	69.4309	65.7896	61.5172	57.2263	52.8011	49.8517	46.3677	43.8681	40.6172	38.0347	36.1154	33.2174	31.187	27.958	26.4162	23.5182	22.4343	20.3762	18.6624	18.7891	16.3695	15.4478	13.2371	12.2694	11.2858	0	0	0
