Description	PHS-10																																																				
EEM type	"Dilution- & Scatter-corrected, Calibrated Data (ppb QSE)"																																																				
Scan date	10/1/2013 14:05																																																				
Excitation	240-500nm by 5nm																																																				
Emission	290-600nm by 2nm																																																				
Calibration	Michael_Fluoromax4_April08 (07-Apr-2008)																																																				
Slit settings	"5nm Excitation, 5nm Emission"																																																				
Dilution	50																																																				
Row 1	Excitation(nm)																																																				
Col 1	Emission(nm)																																																				
Data	Fluorescence(ppb QSE)																																																				
																																																					
	240	245	250	255	260	265	270	275	280	285	290	295	300	305	310	315	320	325	330	335	340	345	350	355	360	365	370	375	380	385	390	395	400	405	410	415	420	425	430	435	440	445	450	455	460	465	470	475	480	485	490	495	500
290	0	0	0	0	0	0	0	0	0	0	0	0	0	0	0	0	0	0	0	0	0	0	0	0	0	0	0	0	0	0	0	0	0	0	0	0	0	0	0	0	0	0	0	0	0	0	0	0	0	0	0	0	0
292	0	0	0	0	0	0	0	3.3736	0	0	0	0	0	0	0	0	0	0	0	0	0	0	0	0	0	0	0	0	0	0	0	0	0	0	0	0	0	0	0	0	0	0	0	0	0	0	0	0	0	0	0	0	0
294	0	0	0	0	0	0	0	6.6739	0	0	0	0	0	0	0	0	0	0	0	0	0	0	0	0	0	0	0	0	0	0	0	0	0	0	0	0	0	0	0	0	0	0	0	0	0	0	0	0	0	0	0	0	0
296	0	0	0	0	0	0	10.1452	9.8876	0	0	0	0	0	0	0	0	0	0	0	0	0	0	0	0	0	0	0	0	0	0	0	0	0	0	0	0	0	0	0	0	0	0	0	0	0	0	0	0	0	0	0	0	0
298	0	0	0	0	0	0	20.0136	13.0013	3.2113	0	0	0	0	0	0	0	0	0	0	0	0	0	0	0	0	0	0	0	0	0	0	0	0	0	0	0	0	0	0	0	0	0	0	0	0	0	0	0	0	0	0	0	0
300	0	0	0	0	0	10.4438	26.313	16.0238	6.3326	0	0	0	0	0	0	0	0	0	0	0	0	0	0	0	0	0	0	0	0	0	0	0	0	0	0	0	0	0	0	0	0	0	0	0	0	0	0	0	0	0	0	0	0
302	0	0	0	0	0	20.9267	29.652	19.0277	9.5149	0	0	0	0	0	0	0	0	0	0	0	0	0	0	0	0	0	0	0	0	0	0	0	0	0	0	0	0	0	0	0	0	0	0	0	0	0	0	0	0	0	0	0	0
304	0	0	0	0	0	31.4489	33.0021	22.0416	12.7078	3.648	0	0	0	0	0	0	0	0	0	0	0	0	0	0	0	0	0	0	0	0	0	0	0	0	0	0	0	0	0	0	0	0	0	0	0	0	0	0	0	0	0	0	0
306	0	0	0	0	0	41.9894	36.1051	25.131	15.9034	7.3047	0	0	0	0	0	0	0	0	0	0	0	0	0	0	0	0	0	0	0	0	0	0	0	0	0	0	0	0	0	0	0	0	0	0	0	0	0	0	0	0	0	0	0
308	13.0701	0	0	0	0	52.5325	39.1957	28.2914	20.255	10.9646	0	0	0	0	0	0	0	0	0	0	0	0	0	0	0	0	0	0	0	0	0	0	0	0	0	0	0	0	0	0	0	0	0	0	0	0	0	0	0	0	0	0	0
310	0	0	0	0	3.2218	39.9449	42.2904	31.4561	24.6128	14.6295	3.4291	0	0	0	0	0	0	0	0	0	0	0	0	0	0	0	0	0	0	0	0	0	0	0	0	0	0	0	0	0	0	0	0	0	0	0	0	0	0	0	0	0	0
312	0	6.7085	0	0	13.1687	37.9318	45.1157	35.5553	28.4178	18.1892	6.8216	0	0	0	0	0	0	0	0	0	0	0	0	0	0	0	0	0	0	0	0	0	0	0	0	0	0	0	0	0	0	0	0	0	0	0	0	0	0	0	0	0	0
314	0	0	0	0	7.803	41.7244	47.9081	39.6087	31.7982	20.5982	10.1775	0	0	0	0	0	0	0	0	0	0	0	0	0	0	0	0	0	0	0	0	0	0	0	0	0	0	0	0	0	0	0	0	0	0	0	0	0	0	0	0	0	0
316	0	0	13.0993	11.4864	17.9556	41.932	58.051	43.4718	35.024	22.9039	13.4519	2.2945	0	0	0	0	0	0	0	0	0	0	0	0	0	0	0	0	0	0	0	0	0	0	0	0	0	0	0	0	0	0	0	0	0	0	0	0	0	0	0	0	0
318	23.0881	0	8.2808	5.822	29.3047	39.9187	62.1858	47.1026	36.9967	25.4443	16.6115	4.5333	0	0	0	0	0	0	0	0	0	0	0	0	0	0	0	0	0	0	0	0	0	0	0	0	0	0	0	0	0	0	0	0	0	0	0	0	0	0	0	0	0
320	52.1223	24.1218	4.7067	9.9188	26.7948	52.331	64.3101	50.6313	38.9104	28.2739	16.2634	6.7164	0	0	0	0	0	0	0	0	0	0	0	0	0	0	0	0	0	0	0	0	0	0	0	0	0	0	0	0	0	0	0	0	0	0	0	0	0	0	0	0	0
322	65.1605	0	0	24.4273	25.9563	40.3036	60.3334	54.5608	40.5761	30.8817	15.8452	8.803	1.2277	0	0	0	0	0	0	0	0	0	0	0	0	0	0	0	0	0	0	0	0	0	0	0	0	0	0	0	0	0	0	0	0	0	0	0	0	0	0	0	0
324	2.3087	76.8753	21.1898	28.3674	21.8543	45.4004	58.8717	51.5599	42.1611	30.213	16.5349	10.8133	2.4128	0	0	0	0	0	0	0	0	0	0	0	0	0	0	0	0	0	0	0	0	0	0	0	0	0	0	0	0	0	0	0	0	0	0	0	0	0	0	0	0
326	39.3353	52.9497	33.9733	26.0198	27.667	45.7324	62.4809	60.3785	43.646	29.5358	18.266	9.8339	3.5538	0	0	0	0	0	0	0	0	0	0	0	0	0	0	0	0	0	0	0	0	0	0	0	0	0	0	0	0	0	0	0	0	0	0	0	0	0	0	0	0
328	57.568	37.6582	30.3579	11.7872	29.6663	50.0774	52.1158	51.0646	41.7941	28.8505	19.9134	8.8794	4.6492	1.3248	0	0	0	0	0	0	0	0	0	0	0	0	0	0	0	0	0	0	0	0	0	0	0	0	0	0	0	0	0	0	0	0	0	0	0	0	0	0	0
330	63.9228	51.3871	30.3124	19.8905	44.2021	43.2618	57.3228	64.5341	49.6994	28.1701	18.8092	8.8871	5.6999	2.5988	0	0	0	0	0	0	0	0	0	0	0	0	0	0	0	0	0	0	0	0	0	0	0	0	0	0	0	0	0	0	0	0	0	0	0	0	0	0	0
332	95.419	62.5265	53.5323	47.7519	38.3788	52.8798	57.6105	62.5864	55.402	27.2003	17.5436	9.6973	7.0773	3.781	0	0	0	0	0	0	0	0	0	0	0	0	0	0	0	0	0	0	0	0	0	0	0	0	0	0	0	0	0	0	0	0	0	0	0	0	0	0	0
334	43.2569	45.4319	34.2522	26.9375	46.7183	50.9758	51.1138	53.8868	51.4647	36.3724	16.3215	10.4406	8.3587	4.8851	1.6082	0	0	0	0	0	0	0	0	0	0	0	0	0	0	0	0	0	0	0	0	0	0	0	0	0	0	0	0	0	0	0	0	0	0	0	0	0	0
336	92.1309	51.9115	56.516	47.1086	36.565	54.0691	58.9418	49.9108	44.1334	33.9995	15.1582	11.5339	9.4149	5.9169	3.1167	0	0	0	0	0	0	0	0	0	0	0	0	0	0	0	0	0	0	0	0	0	0	0	0	0	0	0	0	0	0	0	0	0	0	0	0	0	0
338	71.8568	43.4691	55.5918	22.3343	42.3545	55.5648	46.7838	44.8061	46.984	43.3374	14.0518	12.5496	10.2635	7.9508	4.5302	0	0	0	0	0	0	0	0	0	0	0	0	0	0	0	0	0	0	0	0	0	0	0	0	0	0	0	0	0	0	0	0	0	0	0	0	0	0
340	83.0004	44.8812	41.5289	51.896	45.5508	48.0176	43.5172	46.6983	56.1474	41.4564	23.1417	13.4773	11.039	9.8428	5.847	1.8302	0	0	0	0	0	0	0	0	0	0	0	0	0	0	0	0	0	0	0	0	0	0	0	0	0	0	0	0	0	0	0	0	0	0	0	0	0
342	85.9741	48.7386	56.4552	50.5276	41.1489	49.5146	52.4553	47.8512	45.7879	39.3453	27.9336	14.3952	12.8076	11.3204	7.1058	3.5589	0	0	0	0	0	0	0	0	0	0	0	0	0	0	0	0	0	0	0	0	0	0	0	0	0	0	0	0	0	0	0	0	0	0	0	0	0
344	63.7754	50.0963	48.099	49.9614	42.4024	48.5729	53.606	42.8279	41.7748	41.9776	29.2761	15.2393	14.4577	12.3716	9.3043	5.1858	0	0	0	0	0	0	0	0	0	0	0	0	0	0	0	0	0	0	0	0	0	0	0	0	0	0	0	0	0	0	0	0	0	0	0	0	0
346	74.4388	67.7949	66.23	48.9612	59.2316	45.4518	50.2727	47.8602	47.4526	40.775	36.0664	23.533	16.0311	13.3769	11.3915	6.7288	1.403	0	0	0	0	0	0	0	0	0	0	0	0	0	0	0	0	0	0	0	0	0	0	0	0	0	0	0	0	0	0	0	0	0	0	0	0
348	113.1158	61.5208	64.7709	55.9568	51.5373	54.612	54.5075	51.2128	48.0162	42.5301	37.6892	32.8025	17.5434	15.3116	13.0627	8.2009	2.736	0	0	0	0	0	0	0	0	0	0	0	0	0	0	0	0	0	0	0	0	0	0	0	0	0	0	0	0	0	0	0	0	0	0	0	0
350	125.6722	73.7849	66.3678	54.6827	43.6633	59.6711	59.9472	50.9289	52.9512	45.5835	36.4442	35.3987	18.9576	17.13	14.3191	9.3226	3.9988	0	0	0	0	0	0	0	0	0	0	0	0	0	0	0	0	0	0	0	0	0	0	0	0	0	0	0	0	0	0	0	0	0	0	0	0
352	102.1201	85.0309	68.0867	54.1717	57.3453	53.9362	57.0777	54.9387	52.586	46.1878	45.4653	37.6999	26.3712	18.836	15.4948	10.3763	5.1926	0	0	0	0	0	0	0	0	0	0	0	0	0	0	0	0	0	0	0	0	0	0	0	0	0	0	0	0	0	0	0	0	0	0	0	0
354	111.9778	101.9626	56.9793	68.0782	59.5099	59.9916	53.4527	57.6879	54.3818	49.2837	45.1894	35.8734	30.0495	20.4265	16.336	11.3604	8.5911	3.8553	0	0	0	0	0	0	0	0	0	0	0	0	0	0	0	0	0	0	0	0	0	0	0	0	0	0	0	0	0	0	0	0	0	0	0
356	98.1001	98.2752	80.7455	63.9141	66.0312	58.3406	62.2532	58.459	58.138	51.1436	43.3307	47.3879	38.8426	21.9769	19.375	16.753	13.5894	7.5244	0	0	0	0	0	0	0	0	0	0	0	0	0	0	0	0	0	0	0	0	0	0	0	0	0	0	0	0	0	0	0	0	0	0	0
358	84.7024	99.1804	76.5361	57.3595	65.5489	62.194	58.2032	55.6574	59.0919	52.2446	44.7105	47.9502	44.9485	34.6988	24.4833	21.9424	17.482	11.0461	4.0582	0	0	0	0	0	0	0	0	0	0	0	0	0	0	0	0	0	0	0	0	0	0	0	0	0	0	0	0	0	0	0	0	0	0
360	120.9394	99.6604	77.5596	78.8207	75.1445	66.4822	54.5673	59.2342	62.5534	55.3564	50.8028	51.4657	48.6245	37.0042	29.3514	25.998	21.1923	14.4072	9.0628	1.4284	0	0	0	0	0	0	0	0	0	0	0	0	0	0	0	0	0	0	0	0	0	0	0	0	0	0	0	0	0	0	0	0	0
362	111.4961	104.0812	93.3402	85.2106	65.3269	80.1512	72.2525	61.281	63.8196	63.5481	53.3856	57.022	50.8542	43.9813	34.2184	29.6228	24.4069	18.3343	13.9384	5.9821	0	0	0	0	0	0	0	0	0	0	0	0	0	0	0	0	0	0	0	0	0	0	0	0	0	0	0	0	0	0	0	0	0
364	155.8301	111.1833	115.6585	83.3709	71.8589	76.5783	72.533	62.845	67.9658	63.1558	62.3676	58.5193	52.0909	48.432	43.9552	33.1215	27.5107	23.3179	18.6574	13.7003	0	0	0	0	0	0	0	0	0	0	0	0	0	0	0	0	0	0	0	0	0	0	0	0	0	0	0	0	0	0	0	0	0
366	152.5621	114.9714	95.3456	92.4053	83.9081	79.1485	77.2781	72.851	66.2552	68.5652	66.5862	64.3098	60.3086	56.3694	47.3686	36.5244	31.6955	28.1576	23.239	17.3932	4.5212	0	0	0	0	0	0	0	0	0	0	0	0	0	0	0	0	0	0	0	0	0	0	0	0	0	0	0	0	0	0	0	0
368	134.5737	119.9832	88.1449	104.1535	94.4899	86.7721	82.3025	75.2637	78.4439	72.3342	65.0437	66.055	64.29	59.8855	53.5993	39.8411	36.3445	32.5633	27.3867	20.9842	10.99	1.264	0	0	0	0	0	0	0	0	0	0	0	0	0	0	0	0	0	0	0	0	0	0	0	0	0	0	0	0	0	0	0
370	160.1049	134.7147	104.9573	107.4519	87.8583	91.1636	86.5393	77.6249	78.1244	74.6274	73.6355	72.6568	71.8949	62.7769	59.1921	51.63	40.8436	36.8275	30.7946	24.4623	18.1146	5.8676	0	0	0	0	0	0	0	0	0	0	0	0	0	0	0	0	0	0	0	0	0	0	0	0	0	0	0	0	0	0	0
372	172.226	147.5058	133.0661	110.0368	100.6944	91.3597	91.2303	87.5693	84.4752	86.9322	80.955	77.3378	73.9878	75.4311	65.6229	61.507	45.4245	40.5557	34.2635	30.3285	23.4331	11.1831	1.253	0	0	0	0	0	0	0	0	0	0	0	0	0	0	0	0	0	0	0	0	0	0	0	0	0	0	0	0	0	0
374	219.5214	150.5414	151.1753	114.7442	117.9151	112.5818	92.8141	92.162	92.083	88.5344	84.3569	76.1977	81.4791	78.5961	76.7934	67.4676	49.9062	46.2638	42.358	38.4094	28.6425	20.1518	4.2364	0	0	0	0	0	0	0	0	0	0	0	0	0	0	0	0	0	0	0	0	0	0	0	0	0	0	0	0	0	0
376	171.0494	196.3299	143.0737	120.8794	122.3573	106.8214	106.4319	97.3817	96.6476	97.5208	92.5632	92.557	89.2679	85.6461	82.9556	76.0482	63.0375	54.1402	50.2409	43.7434	33.7136	23.332	8.0393	0	0	0	0	0	0	0	0	0	0	0	0	0	0	0	0	0	0	0	0	0	0	0	0	0	0	0	0	0	0
378	223.4596	186.5436	154.3707	137.1712	121.878	112.0384	113.5579	101.2672	103.1917	100.068	100.4569	97.1543	98.825	94.5452	85.7613	79.9714	72.5983	61.7788	57.8903	48.9078	38.6321	29.1641	17.1022	3.972	0	0	0	0	0	0	0	0	0	0	0	0	0	0	0	0	0	0	0	0	0	0	0	0	0	0	0	0	0
380	223.6351	178.5276	156.9499	153.0725	130.8304	129.415	113.1943	115.2544	106.2546	107.0896	101.7952	103.9245	105.0029	106.0477	94.5564	90.699	80.947	69.2191	62.8458	53.7855	43.4226	34.8495	21.2368	6.3423	0	0	0	0	0	0	0	0	0	0	0	0	0	0	0	0	0	0	0	0	0	0	0	0	0	0	0	0	0
382	254.0902	192.4837	181.8917	154.6492	138.5118	131.6139	127.4415	120.6548	107.9297	110.0809	115.9009	110.4766	106.9475	109.3046	105.2376	97.6532	90.6305	76.8095	67.9717	58.6482	49.8558	40.572	30.2775	11.4591	2.7015	0	0	0	0	0	0	0	0	0	0	0	0	0	0	0	0	0	0	0	0	0	0	0	0	0	0	0	0
384	237.1267	222.9783	179.2497	167.7958	162.6619	136.7806	132.2243	127.4819	118.756	118.6825	119.783	121.011	114.332	113.5953	114.8599	107.6958	97.8247	87.6993	73.0106	63.429	56.1847	46.2021	34.655	21.1299	5.7755	0	0	0	0	0	0	0	0	0	0	0	0	0	0	0	0	0	0	0	0	0	0	0	0	0	0	0	0
386	247.661	208.2587	192.6796	188.2253	153.9417	152.3489	137.3325	130.0992	124.2118	123.8656	119.1699	127.0831	125.3379	121.242	119.9933	116.0112	106.8707	97.7625	78.2534	69.9343	62.3089	51.9324	39.1056	26.113	11.6558	3.5725	0	0	0	0	0	0	0	0	0	0	0	0	0	0	0	0	0	0	0	0	0	0	0	0	0	0	0
388	251.5028	233.256	206.7979	203.1174	176.9788	146.3249	147.9578	139.8023	133.8853	133.9003	131.5423	132.9768	135.798	127.0851	131.2928	125.9836	113.9882	101.6314	83.7621	76.6693	68.3032	56.6323	43.6804	32.1627	15.2808	4.8154	0	0	0	0	0	0	0	0	0	0	0	0	0	0	0	0	0	0	0	0	0	0	0	0	0	0	0
390	262.3745	250.1191	229.3235	216.0264	186.5099	166.1179	151.9981	143.7308	134.4799	140.7884	140.0377	145.9874	139.5869	141.1153	133.5669	131.9113	122.3357	112.6464	93.1548	83.3995	74.2929	61.3283	48.2515	36.0197	24.8818	9.272	2.0004	0	0	0	0	0	0	0	0	0	0	0	0	0	0	0	0	0	0	0	0	0	0	0	0	0	0
392	348.1242	240.0045	241.5857	208.0518	195.5526	176.8455	155.4089	155.3838	147.2292	146.1007	143.3727	146.5036	148.8771	149.0581	142.8137	137.2995	130.8716	124.2319	108.8695	89.5868	78.5891	65.6264	54.1776	41.9423	28.6905	14.2216	3.3443	0	0	0	0	0	0	0	0	0	0	0	0	0	0	0	0	0	0	0	0	0	0	0	0	0	0
394	315.0165	280.0338	248.9414	225.2317	184.1332	184.7849	159.5757	160.8322	153.3558	146.3648	154.4875	153.3082	155.9023	155.185	150.7598	151.1651	142.2071	128.4436	119.274	95.6881	84.5648	73.2862	61.2586	47.7864	34.7214	22.5086	9.1564	1.046	0	0	0	0	0	0	0	0	0	0	0	0	0	0	0	0	0	0	0	0	0	0	0	0	0
396	347.4497	297.7305	267.0298	226.3056	206.4034	182.9442	173.628	166.6732	158.5022	155.6022	160.3579	158.3885	171.8681	165.3654	159.5766	159.7049	151.1514	137.4588	125.6532	108.0384	92.3305	80.9682	67.4964	53.6347	40.5301	29.7811	14.4894	5.1915	0	0	0	0	0	0	0	0	0	0	0	0	0	0	0	0	0	0	0	0	0	0	0	0	0
398	324.1278	299.414	281.7994	238.6671	220.4071	201.1494	181.1607	171.3008	167.068	159.6494	163.1366	173.3731	170.5945	175.6516	176.6307	166.5637	160.9239	150.4113	133.6108	120.7509	100.1723	87.8343	73.7846	59.5156	46.6663	33.999	20.4619	7.6199	2.224	0	0	0	0	0	0	0	0	0	0	0	0	0	0	0	0	0	0	0	0	0	0	0	0
400	393.7732	310.2067	272.0615	255.554	244.547	209.5528	193.1767	182.7276	168.1226	168.4126	176.3056	181.3047	176.5439	184.7979	178.0647	177.8784	164.6025	157.078	147.04	135.4697	107.9596	94.2161	79.719	65.7521	52.7602	41.3776	27.1107	10.9307	6.2936	0	0	0	0	0	0	0	0	0	0	0	0	0	0	0	0	0	0	0	0	0	0	0	0
402	364.0439	323.4672	287.2013	255.4536	234.8244	217.8664	200.7034	185.0585	175.4077	179.484	180.2687	184.1245	190.118	186.4496	192.9402	184.1106	180.5747	169.9464	157.2944	142.1502	118.5277	100.3804	85.4648	72.6118	58.7109	44.6191	32.791	17.9639	9.4983	0	0	0	0	0	0	0	0	0	0	0	0	0	0	0	0	0	0	0	0	0	0	0	0
404	392.6745	337.5517	316.5277	268.8408	259.5049	237.4067	204.9968	197.4348	196.3381	186.8797	187.4199	194.2553	201.995	201.5469	201.5248	198.3865	185.7194	178.4007	164.3417	149.1547	133.2409	106.4765	91.9518	79.398	64.5978	50.6362	37.8329	24.8837	12.823	5.9709	0	0	0	0	0	0	0	0	0	0	0	0	0	0	0	0	0	0	0	0	0	0	0
406	398.4807	392.7598	317.8818	290.8539	257.69	250.5569	219.882	196.8524	195.0906	195.6457	194.9004	202.3732	209.0402	210.4054	209.0973	203.8699	196.6378	188.1622	170.1267	162.6099	140.2463	112.7147	98.9523	85.3795	70.5801	56.6947	45.1456	29.8324	16.4316	8.677	0	0	0	0	0	0	0	0	0	0	0	0	0	0	0	0	0	0	0	0	0	0	0
408	434.3184	364.3135	330.1834	301.2431	280.8367	251.1819	227.438	209.1227	206.0636	198.7231	198.7707	207.7707	216.198	219.7143	217.052	217.5088	207.8531	199.7501	185.5307	169.5769	149.0535	128.7778	106.1032	91.4904	76.7199	62.8296	49.3109	34.4839	21.3655	12.4099	4.2509	0	0	0	0	0	0	0	0	0	0	0	0	0	0	0	0	0	0	0	0	0	0
410	463.6051	417.374	361.4093	326.1443	288.146	250.0745	243.9651	222.4078	213.1645	207.3205	211.7777	212.1293	219.4694	224.5533	228.1843	226.2086	219.788	213.4423	196.7035	180.7482	163.5376	142.7001	113.2335	97.639	82.8418	69.5295	55.0992	42.5108	27.4439	14.2532	7.9502	0	0	0	0	0	0	0	0	0	0	0	0	0	0	0	0	0	0	0	0	0	0
412	456.7731	426.069	349.3281	333.3954	300.4134	271.2243	250.1221	228.3396	217.5784	215.4654	215.2699	224.8432	234.7603	233.329	238.0667	234.0631	229.5969	215.187	201.2953	189.3319	173.7752	152.2686	120.3523	104.3973	90.1213	76.7978	60.8748	49.6008	32.738	20.2628	11.69	0.9962	0	0	0	0	0	0	0	0	0	0	0	0	0	0	0	0	0	0	0	0	0
414	463.5455	401.0956	363.229	338.3433	318.0162	283.5591	255.513	238.1222	218.2153	219.103	219.9897	226.9834	237.1738	246.3564	244.3135	244.9256	237.2373	225.6399	219.9554	197.5206	184.5677	159.6445	132.3821	111.7285	97.3808	82.5277	66.6343	53.6037	38.5536	24.6974	15.4556	7.6463	0	0	0	0	0	0	0	0	0	0	0	0	0	0	0	0	0	0	0	0	0
416	517.1578	428.0922	408.4515	346.1906	328.7418	300.212	258.6967	240.6619	239.6936	224.4144	230.8698	244.1236	240.2321	252.4003	254.2744	255.6731	249.4855	235.0422	230.429	210.9098	186.2579	171.1784	144.1377	119.3102	104.8586	88.442	72.5422	56.7313	42.4105	29.5733	18.6286	9.8452	0.4405	0	0	0	0	0	0	0	0	0	0	0	0	0	0	0	0	0	0	0	0
418	532.9136	481.7269	407.4623	373.1878	349.586	304.1925	261.6563	249.8354	244.3141	237.3886	228.9601	241.1835	249.6339	253.5501	262.8821	263.6172	258.2135	248.5732	241.602	218.924	199.735	179.0192	157.3444	127.1935	111.073	94.5805	79.1369	63.552	49.6277	36.835	22.0205	15.3545	5.1935	0	0	0	0	0	0	0	0	0	0	0	0	0	0	0	0	0	0	0	0
420	515.4323	488.9724	395.8504	384.4187	335.3972	317.2133	278.0919	265.3646	254.5098	237.0176	239.5173	249.4394	258.8804	264.0576	271.0105	266.1822	264.2658	257.6096	244.5463	227.6795	209.0664	189.2107	163.2192	135.1251	117.8267	101.7556	86.1156	70.415	57.3878	40.8144	26.4702	16.9201	8.5996	0	0	0	0	0	0	0	0	0	0	0	0	0	0	0	0	0	0	0	0
422	502.1786	491.8845	411.2986	390.2321	356.605	319.6306	284.7742	271.8579	246.5931	252.1365	250.3882	250.7728	259.483	276.3205	284.1856	283.7074	276.3453	268.3716	255.8325	240.7227	221.2118	201.9531	177.857	149.4166	125.1551	109.0014	92.8451	77.3387	61.841	45.413	33.6112	20.1136	13.5421	2.9893	0	0	0	0	0	0	0	0	0	0	0	0	0	0	0	0	0	0	0
424	546.006	506.2219	454.3187	410.5054	366.9402	323.9176	296.3532	275.3621	264.1726	252.6287	262.2015	266.9063	276.2094	279.8701	284.2492	289.4136	282.6243	277.9223	258.8381	251.5439	230.0115	210.6484	185.4279	160.792	132.5309	115.9792	99.6185	84.3078	67.3463	51.565	36.2676	24.9413	15.1152	5.3113	0	0	0	0	0	0	0	0	0	0	0	0	0	0	0	0	0	0	0
426	543.7589	493.5383	424.2981	421.1263	374.9347	336.6735	311.6785	285.0046	264.535	260.0429	261.6443	269.9902	275.7942	286.2658	292.127	297.1769	291.866	289.3853	271.6256	253.5707	236.3008	216.9063	191.6224	168.9017	140.1807	123.0419	106.8332	90.8346	73.005	59.677	43.8364	28.0842	19.3128	10.4657	0	0	0	0	0	0	0	0	0	0	0	0	0	0	0	0	0	0	0
428	552.434	535.5132	450.9771	437.9003	400.864	345.765	308.4772	292.3782	275.374	264.7836	270.364	272.6039	280.7698	290.4552	296.8404	302.1168	301.4795	301.9534	286.3456	269.4098	247.9668	228.7081	201.8598	177.8308	156.2362	130.3785	114.2981	96.2991	78.843	62.168	47.7981	34.7807	23.7319	14.8153	4.3983	0	0	0	0	0	0	0	0	0	0	0	0	0	0	0	0	0	0
430	627.9029	499.2323	469.0337	430.4224	397.4071	356.3084	324.5306	299.1996	279.6871	270.4509	272.4626	283.491	289.9179	299.8394	306.3632	309.7759	309.4149	305.3381	295.3898	274.6288	257.3781	233.9678	210.1328	189.2689	162.4422	137.8012	120.5677	101.8273	84.7512	67.7667	51.9185	38.9358	26.4594	17.2702	8.851	0	0	0	0	0	0	0	0	0	0	0	0	0	0	0	0	0	0
432	547.1285	526.0676	480.1339	455.7511	406.4376	367.961	335.0733	311.326	294.6359	284.7264	276.5652	281.6368	292.9616	301.5567	311.9144	311.394	315.5037	314.1087	302.1512	290.5664	269.5611	244.6525	224.099	193.2468	175.5762	145.1509	126.1254	107.7877	90.5491	73.3523	56.5889	42.3603	31.8849	19.9062	13.1628	2.7361	0	0	0	0	0	0	0	0	0	0	0	0	0	0	0	0	0
434	544.8793	529.1954	489.7158	465.7012	436.948	384.9117	339.6797	307.5834	302.3578	287.7949	288.3659	292.2794	296.0208	307.5756	313.7952	318.5666	326.2605	317.4658	308.2006	288.1663	273.1057	251.825	230.0475	204.9405	183.5653	157.1539	131.736	113.8065	96.2417	78.994	63.8731	47.4147	34.1305	23.1808	15.5769	7.6945	0	0	0	0	0	0	0	0	0	0	0	0	0	0	0	0	0
436	594.5747	591.7884	511.7484	488.7528	429.4796	392.4051	349.8326	315.5335	306.5685	289.2982	288.7049	298.2698	304.5544	316.9081	320.7219	327.8522	325.8622	329.7512	319.0405	299.1424	283.1352	262.1167	234.9219	213.0484	190.8853	167.5876	137.5757	119.8734	102.1206	84.8001	67.1217	52.8277	39.9378	26.9797	19.1856	11.9244	1.1364	0	0	0	0	0	0	0	0	0	0	0	0	0	0	0	0
438	664.2853	556.0611	517.8122	480.5655	421.8116	398.486	356.5147	333.8847	308.2923	297.5647	294.3792	306.8065	303.9848	317.5741	326.5223	327.3418	332.6298	333.3352	325.3686	309.5417	290.6259	269.3136	245.3307	217.9667	196.4159	177.5885	143.6637	126.1742	108.3781	91.0509	72.1301	57.4422	46.387	31.1373	20.4455	14.6275	4.3252	0	0	0	0	0	0	0	0	0	0	0	0	0	0	0	0
440	594.7401	605.778	524.057	466.4586	447.882	404.9936	365.8249	332.1342	316.3855	300.0232	298.7672	308.4483	312.4842	317.0266	330.5206	340.8579	340.5333	336.1838	334.5646	323.8989	300.2126	272.4856	251.1789	227.7529	204.0569	185.6057	156.8889	132.8188	114.8945	96.3626	77.2084	61.5775	48.3502	37.2691	24.5366	16.2716	8.6682	0	0	0	0	0	0	0	0	0	0	0	0	0	0	0	0
442	615.1365	571.501	547.2694	493.7477	442.7705	409.3928	377.3626	350.5481	322.9285	311.716	305.0393	309.4858	320.9252	320.8009	328.2022	343.3533	341.7956	347.1746	343.4866	329.2651	307.5874	284.715	257.6517	235.9013	214.6291	187.3561	163.7033	139.4445	121.4057	99.424	82.293	66.6088	53.1269	40.35	27.7857	20.1543	12.4158	3.9468	0	0	0	0	0	0	0	0	0	0	0	0	0	0	0
444	674.6647	593.9425	536.8335	484.056	457.0422	426.8389	371.2129	349.5002	332.5621	309.3326	305.7968	310.2961	317.2655	332.8715	334.5501	347.0081	345.2608	350.2672	342.1082	331.2402	314.543	292.3042	267.527	242.3829	220.1322	196.0555	175.2539	146.1499	125.7535	102.5184	87.4406	70.9287	56.8063	45.2681	33.4127	22.3632	16.8834	6.9989	0	0	0	0	0	0	0	0	0	0	0	0	0	0	0
446	634.3109	575.8941	537.1131	516.3504	474.6813	421.0433	394.4358	351.7869	332.8966	315.2625	314.6516	309.9488	320.9159	336.6073	340.8269	357.1891	352.287	350.5302	349.4835	337.4927	319.1628	298.4157	270.4719	246.952	229.1231	204.7504	179.229	153.0338	129.1037	107.8712	92.0268	75.3501	62.1625	48.4455	38.7911	24.7147	18.6154	11.4359	2.5079	0	0	0	0	0	0	0	0	0	0	0	0	0	0
448	633.8387	614.6759	562.1088	524.1308	474.1773	425.5469	391.2211	365.7132	339.3316	312.5661	316.289	318.6587	323.9317	327.6619	344.1669	348.0029	349.9215	360.0281	357.1975	339.8252	325.7285	301.374	277.0959	252.8892	230.1447	209.1618	188.6008	157.0853	132.5748	113.3652	95.3544	79.8805	66.6366	54.6802	43.4532	30.1681	22.1094	13.4337	5.4251	0	0	0	0	0	0	0	0	0	0	0	0	0	0
450	630.9752	585.561	576.3969	529.4792	483.7029	445.3038	403.7029	360.5661	358.6131	327.6761	322.4423	324.0345	325.4901	335.8392	337.06	352.2671	359.6579	363.5907	354.9986	343.6672	327.6901	305.6256	281.1649	253.2882	235.8931	218.5576	193.2192	168.6857	136.0851	117.5519	98.7234	84.474	70.7049	58.5794	44.861	33.363	21.9833	17.3217	10.7643	0	0	0	0	0	0	0	0	0	0	0	0	0	0
452	639.91	572.672	563.522	532.8657	486.6954	440.2066	413.7407	372.8327	339.9306	333.3949	329.0697	324.1595	336.5038	338.4704	345.2083	358.3065	366.0761	368.2805	364.0084	351.0323	332.8043	308.4206	283.7114	258.3809	243.7112	221.4997	198.7669	172.4675	139.6988	121.1496	103.5421	89.0154	74.8639	62.9567	49.7221	37.4071	26.8816	19.009	13.8653	3.9163	0	0	0	0	0	0	0	0	0	0	0	0	0
454	657.7466	622.8066	543.5944	503.705	501.5943	451.317	405.9935	383.7022	351.4268	331.7896	329.0587	328.9237	329.8982	336.6448	348.6937	354.7911	366.6106	362.4103	362.9984	354.3585	332.6706	314.512	287.7229	268.5236	242.2098	230.4304	203.4072	179.0316	147.697	124.7911	108.4277	93.3055	79.0826	67.6759	53.623	42.8524	31.1019	23.8714	17.107	7.6138	1.4435	0	0	0	0	0	0	0	0	0	0	0	0
456	667.2471	621.531	574.9479	553.2225	516.0634	454.5488	430.1388	389.5518	353.4198	339.5975	328.0606	326.4102	327.6596	331.1925	349.667	356.6716	368.8282	363.39	364.57	350.9801	341.4075	325.1451	299.0098	273.435	251.7362	232.3715	208.8363	186.046	158.4255	128.6744	113.2359	97.8045	83.4891	68.1691	56.1997	45.5131	35.4667	25.8511	19.3598	12.2466	1.9445	0	0	0	0	0	0	0	0	0	0	0	0
458	629.4914	603.2429	576.0969	548.8954	508.6144	453.3243	416.6237	386.3379	354.0877	338.7466	334.6723	333.6751	330.2635	342.4047	348.596	353.3373	365.9885	369.0866	365.068	360.0529	343.766	322.3002	301.4275	278.1042	258.1546	238.7732	212.8966	189.9134	162.1444	132.812	117.666	101.59	86.6737	71.1501	62.1053	49.8901	38.2136	29.353	20.303	14.5428	7.8837	0	0	0	0	0	0	0	0	0	0	0	0
460	665.08	612.3732	572.9155	556.0727	505.3728	460.4552	441.2334	385.223	361.7702	344.7686	329.2183	336.6434	341.307	343.1179	348.1672	358.4178	366.7026	364.4128	370.7496	365.5528	344.7805	326.2618	302.7526	279.6208	258.4337	245.8731	215.1525	194.3769	166.1289	139.0116	120.7415	104.4859	89.0277	74.1804	66.0838	52.6051	42.2213	31.9589	21.8689	17.312	10.3168	1.6188	0	0	0	0	0	0	0	0	0	0	0
462	628.2035	643.4366	564.8626	533.9262	504.7188	469.3148	427.0614	387.5389	371.4591	341.5457	337.8418	332.8899	341.5109	339.1916	352.1644	359.7443	363.9048	371.2113	373.1548	359.6581	347.2265	325.9397	301.5725	284.8081	263.9711	243.6214	222.1923	198.3061	174.621	143.9356	123.9919	107.5391	90.7032	77.3447	65.7702	56.5048	44.8256	34.5711	24.4163	20.4601	13.1217	4.8849	0	0	0	0	0	0	0	0	0	0	0
464	628.0553	618.429	583.7709	537.6333	517.9208	477.7193	426.5439	397.1196	369.3663	353.0701	350.0982	332.9509	335.4151	342.5333	343.889	355.737	362.7944	375.4074	365.7252	365.6197	345.4417	332.8227	302.7627	286.8563	264.9135	245.6617	222.9626	203.3857	179.418	150.0262	127.2856	109.8267	92.3932	80.5633	68.6572	59.5709	47.8395	37.406	29.5297	23.2928	18.1288	8.2667	0	0	0	0	0	0	0	0	0	0	0
466	610.8689	578.0472	590.7193	556.445	525.0788	471.4038	432.4637	393.5161	367.0396	360.517	341.5266	344.542	338.5709	338.7249	346.4406	354.2544	368.1555	371.8311	372.3797	365.1194	349.0016	334.2238	306.1465	289.6152	269.3037	251.7576	230.523	204.9863	180.6116	156.2302	130.6625	111.7632	95.8257	83.2151	71.616	63.431	51.3135	43.0974	32.1971	24.363	17.5056	13.1694	2.5588	0	0	0	0	0	0	0	0	0	0
468	593.2906	633.706	579.7268	557.8098	526.528	462.2712	429.9895	408.4143	374.4923	360.7488	342.3084	342.5144	339.2447	354.8057	350.4026	358.037	367.8749	373.2046	372.2854	361.3091	348.9286	334.1015	307.7084	288.3786	270.0219	254.0866	231.1477	207.9149	181.6464	159.4534	137.5604	113.749	99.3441	84.6232	74.6485	66.2253	53.7546	44.3134	33.7263	26.8558	21.0111	14.1434	6.9335	0	0	0	0	0	0	0	0	0	0
470	575.1247	596.8258	566.6594	550.7946	503.1446	484.9807	445.5706	399.5981	388.1027	357.065	341.0199	339.5678	341.6425	345.6308	346.8585	354.1869	359.1943	372.3464	370.7697	363.9052	346.2115	332.796	310.1032	289.3422	270.635	258.2844	237.3381	207.6575	186.5133	167.1527	143.5036	115.7498	101.5988	86.0409	77.7335	67.6275	56.7278	48.1508	37.5365	28.9467	21.3817	16.7006	10.5044	1.0975	0	0	0	0	0	0	0	0	0
472	557.7107	584.4002	562.2434	548.1885	532.4292	472.3834	448.3782	418.5954	381.8943	362.4171	348.7494	343.2081	335.4075	341.0723	340.9264	350.1486	363.219	369.7765	364.643	358.366	351.3599	329.4769	308.3648	285.2396	273.832	255.5118	237.0291	211.4196	191.9827	168.2382	143.2399	118.0454	103.4555	89.4724	80.5266	69.2076	60.6506	48.4856	39.7523	31.44	22.9959	19.2	11.3754	5.1963	0	0	0	0	0	0	0	0	0
474	539.5883	562.5512	558.5158	521.7276	513.2419	488.3666	444.9461	415.0638	388.4039	360.8414	346.0395	334.3407	329.6106	338.7249	344.5206	354.534	352.8434	362.7333	363.5317	350.4139	348.187	331.734	315.9362	286.0106	272.1647	255.8671	241.0258	213.4093	189.7266	167.1244	148.5226	124.3961	105.3236	92.9665	82.2802	70.8051	62.1484	52.4902	43.259	34.313	24.6851	20.6739	14.4543	8.0669	0	0	0	0	0	0	0	0	0
476	520.2791	547.7834	547.9833	535.9836	517.6505	478.6854	436.6889	408.9786	374.6907	356.4318	346.3008	334.6025	334.2518	325.2584	337.5319	347.5812	353.2172	356.2121	355.8723	354.2942	344.1472	326.1227	309.5931	284.8781	272.4503	261.9055	237.7778	217.4504	192.5598	170.6549	150.5527	128.3	107.1055	95.3421	83.9745	72.354	60.4003	54.9774	45.9572	35.5975	27.2404	22.4048	16.9709	9.8137	4.3621	0	0	0	0	0	0	0	0
478	499.8588	531.9749	539.7923	548.354	507.3419	478.2897	441.7695	398.8846	379.9053	360.8398	344.2756	336.6075	330.6861	332.3934	342.6743	348.7878	348.1939	357.1522	351.3635	354.3851	337.0849	323.7246	306.336	286.1558	271.4208	256.1121	238.8278	210.8682	193.154	170.7894	153.4484	130.532	108.7998	96.9828	85.3585	73.4761	62.5975	57.9723	48.4208	37.8497	30.7368	23.2732	18.4147	13.2312	7.4493	0	0	0	0	0	0	0	0
480	478.8347	515.6536	501.5017	511.4429	517.8836	483.3205	440.6451	402.4667	383.4527	361.8593	343.7397	346.9786	332.9958	325.6224	336.9988	341.263	344.1589	357.548	352.8258	344.5674	339.8749	323.0887	303.128	284.6313	274.4547	258.671	241.648	215.8942	198.29	174.666	154.13	135.7877	112.5239	98.2601	86.4994	74.643	64.8298	58.9296	49.4067	40.5618	32.6277	25.8562	21.5348	16.9123	10.2327	2.2928	0	0	0	0	0	0	0
482	456.2551	497.7787	524.2947	539.8387	501.5684	447.8333	423.0863	424.6116	373.1943	359.5079	345.5673	340.1343	330.9146	325.4049	327.629	337.031	343.2964	349.8236	348.6758	343.2056	334.662	321.1601	301.7182	283.1659	272.4097	260.9096	241.4376	218.5601	194.2527	173.1353	159.3217	135.5225	118.0468	99.335	87.4625	75.9951	66.9584	58.7493	51.788	41.0211	34.9566	26.5948	21.1251	18.5993	12.4726	5.8989	0	0	0	0	0	0	0
484	433.1905	479.4901	525.1612	536.2375	518.5087	488.595	420.9391	408.1188	382.1826	365.7837	340.7933	337.0447	328.1989	327.2598	331.4082	337.8504	338.2929	346.4773	340.7541	340.5051	333.3144	319.6038	306.2031	282.4672	270.5207	263.0686	241.6675	217.4379	193.8789	175.5062	160.0939	139.9699	122.8384	100.4126	88.7635	77.3593	69.1158	59.8652	55.5533	46.0407	36.6968	27.967	23.2001	19.8137	15.0029	9.459	2.3842	0	0	0	0	0	0
486	409.5618	460.6985	510.1807	518.4244	499.1119	468.5118	451.3987	407.3677	373.6829	360.6922	346.6332	331.7869	332.4479	319.1839	331.3699	336.6133	334.0963	338.4534	333.179	336.4009	331.0262	316.7358	299.4865	282.4268	273.5878	261.5307	241.2954	219.8537	198.9693	175.2343	158.2811	139.7417	124.7443	101.4728	90.2251	79.6015	70.7278	60.9797	54.6343	48.0872	38.8583	31.8497	24.8223	18.7854	17.4199	12.0607	4.1897	0	0	0	0	0	0
488	385.3874	441.4189	494.7554	511.271	491.7583	468.632	441.0712	406.1287	379.3411	359.2072	345.4367	335.1215	330.3685	318.1489	320.2461	324.7657	336.5438	328.4611	334.8848	331.602	327.1624	312.2797	300.1867	284.6397	267.4654	256.0722	241.9352	218.6687	197.0433	182.0542	158.4547	142.8873	125.3987	109.4661	91.6807	81.8557	71.2133	62.0926	56.1801	50.3419	42.461	34.5451	24.5441	22.1377	18.6344	13.5421	7.9264	0	0	0	0	0	0
490	360.7554	421.7478	478.9912	507.2115	490.1091	470.267	433.8202	389.4513	379.3719	354.2691	341.8718	331.4027	325.1168	319.917	309.8539	324.0886	330.0458	329.4186	332.0083	329.6761	319.9497	305.159	290.7363	275.9679	268.9721	251.3108	240.3503	219.6359	197.9626	177.3846	162.3105	145.4476	130.5971	112.2948	93.1479	83.0013	71.6962	63.2155	54.4721	50.6512	41.6093	37.5286	27.4024	21.7224	19.248	15.4281	9.6701	3.3021	0	0	0	0	0
492	335.9884	402.9189	463.3331	513.2578	487.0743	457.1726	436.0556	393.4467	370.1072	356.551	334.2318	321.3326	313.434	311.4399	317.4266	317.2133	320.7993	327.7576	327.6851	324.5139	318.4184	304.1235	289.7889	278.8258	268.0952	255.0783	238.5675	221.2336	200.3003	179.3541	161.6647	145.4821	130.5098	113.8099	94.7166	83.6605	72.97	64.4095	56.1248	52.7798	43.3948	38.2276	27.8186	24.4009	22.5955	16.9381	12.2331	4.76	0	0	0	0	0
494	310.7132	384.5261	447.2984	506.9249	487.1211	461.0151	423.7214	408.1244	377.6092	347.0112	335.9826	328.4748	314.7549	309.9737	310.8966	315.9869	313.2035	325.292	322.6053	326.1307	312.6786	309.4093	289.5835	273.9417	264.0781	251.5022	239.0886	219.8102	197.9024	179.5616	163.6394	145.8321	130.9098	116.7216	99.0115	84.317	74.2549	65.6156	57.7992	54.6555	44.7999	38.3564	32.5503	22.1083	20.4671	18.2551	15.2191	8.8752	2.0779	0	0	0	0
496	284.8453	365.6177	453.7118	485.254	475.6849	452.8336	430.8028	407.5585	366.4021	359.2016	333.1766	324.8201	314.9262	302.2301	301.8315	308.8322	319.7804	315.0583	319.6172	317.4485	305.7632	298.0381	286.3208	266.8941	264.3873	250.2664	235.9801	215.3974	196.9652	178.6237	166.1183	143.5768	132.9223	115.3837	101.984	84.9449	75.5286	66.8132	59.4773	52.2657	49.5028	38.5036	33.4578	25.8869	21.439	20.2073	15.9596	11.4554	3.7255	0	0	0	0
498	258.413	387.3301	427.4163	462.989	471.1489	447.6987	417.694	397.7864	380.0226	346.7366	334.9545	317.5011	311.8717	302.2779	299.1945	306.428	309.8478	315.1631	317.72	308.0536	303.1282	299.1074	278.4571	271.6756	260.0067	245.174	234.6467	213.8221	199.3997	177.2998	165.0918	145.6328	129.3517	118.4985	104.5893	85.5445	76.7911	68.0014	61.1581	52.8553	49.0876	40.1765	35.8335	26.588	19.8284	21.655	18.334	12.0398	5.1913	0	0	0	0
500	297.6175	357.5239	400.6299	440.2874	463.6283	431.7258	414.9966	382.9652	359.7563	344.7457	333.578	318.0772	304.7188	301.3157	295.5992	306.9659	304.5404	305.9787	303.1746	302.5251	300.0902	287.9397	276.7251	264.3823	259.7495	240.169	230.8072	214.3631	197.3625	180.7181	164.4434	145.0076	134.9473	116.7833	104.4761	90.5925	78.0641	69.7611	62.3228	53.4471	49.2105	43.0539	36.4312	29.0584	22.3668	21.441	18.6431	13.7151	9.1341	4.8169	0	0	0
502	261.4736	327.0942	374.018	417.0252	452.7709	432.2371	404.6168	386.1379	361.8425	343.9616	323.4723	312.0179	299.1535	288.4752	291.1153	297.6223	302.9052	304.1336	301.4611	297.1654	300.9471	280.8527	268.2355	264.8184	252.0869	247.8489	228.895	212.0341	193.6714	178.6516	161.952	146.8161	129.3762	119.9899	108.6696	92.1558	79.3241	71.5197	62.3972	54.0251	49.6835	44.0383	36.8359	31.3764	22.1009	19.2101	19.306	15.5704	11.3929	5.3144	0	0	0.7469
504	298.3266	296.1618	347.7291	393.3461	429.0122	430.3803	412.0178	372.0661	357.1744	341.7795	316.6263	312.8875	292.7907	285.2682	288.4353	288.0679	293.6079	298.8642	292.0907	298.9857	280.5586	281.2951	267.2282	253.314	249.0391	236.2533	224.589	211.4915	194.6056	180.867	160.0138	145.4967	134.7907	120.8416	108.8857	94.348	80.5942	72.208	62.4642	54.6053	46.7576	45.1421	39.736	33.3037	26.0888	19.6443	19.5813	17.695	11.4854	7.9124	0	0	1.5063
506	291.8677	265.0416	321.3741	380.2363	407.7906	416.7657	384.4097	371.9124	360.2925	331.5427	309.2906	298.2367	291.4469	284.2455	284.9338	287.5187	282.736	282.6105	288.231	283.6696	279.6271	272.8524	259.7041	250.7455	241.7203	238.0762	228.8106	202.1207	185.8537	175.1291	156.0806	142.5148	133.8112	121.9713	107.5981	94.8394	81.9705	72.4335	63.1863	55.2524	47.5184	45.7867	40.6917	34.8313	28.0949	19.4232	20.1343	16.7997	14.0856	9.2081	4.9361	0	2.2807
508	176.0025	233.6157	320.7174	361.5442	386.5754	410.1737	389.4517	364.0859	349.5772	327.435	308.7658	296.8062	291.1642	275.0698	280.3384	278.5412	280.5731	284.4347	284.4346	287.4402	277.7056	267.5761	256.3735	242.841	238.2378	231.2877	221.0025	203.5408	186.4028	173.1719	156.5842	142.0018	133.9398	120.8269	109.7492	94.6978	83.9473	72.735	63.9852	55.6876	48.3413	45.3693	41.7118	37.0191	29.7774	22.812	17.9136	18.6761	15.8032	10.9595	5.8635	0	3.0729
510	173.6732	247.3442	299.2438	342.4005	364.8558	389.9064	393.8891	360.5876	342.3405	319.9611	314.0185	291.8112	283.6156	275.6157	269.6055	278.1064	272.6563	276.049	272.003	274.8818	270.6551	260.1178	252.9387	240.5634	232.9768	229.2333	215.6643	206.2354	186.6685	172.2829	154.1073	142.2656	132.6341	120.181	106.8869	97.1032	81.7923	73.0271	64.645	55.9788	49.1709	43.3405	41.4518	36.8105	32.6718	23.3624	17.1959	17.8812	16.8973	13.2796	8.0698	2.6011	3.8811
512	171.237	238.5502	277.2515	320.2978	342.59	359.2064	370.231	349.3433	332.7392	322.8999	293.9566	285.5588	278.6707	268.3922	264.548	269.0591	263.2474	269.0793	268.9441	265.1983	266.1383	255.2719	249.0292	238.1148	232.2986	222.9351	212.2146	200.0127	182.9238	167.5785	153.4337	141.2217	127.5209	117.3821	106.9638	95.4981	82.0768	73.3	65.0095	56.2572	50.0009	43.7277	44.4643	36.6824	33.3494	27.3838	16.814	15.3838	16.6308	14.503	7.7761	4.7153	4.7046
514	168.7166	253.6897	254.7834	295.2192	319.8301	358.878	353.2377	349.2772	334.2133	311.3208	291.5948	287.9024	264.6617	265.5581	256.4008	264.4075	269.089	260.1961	261.0221	260.7771	258.4149	251.2107	242.3209	234.7354	224.3538	219.7184	210.2196	195.7559	181.0247	169.8727	152.5723	139.6723	130.6957	116.4453	103.52	96.0676	85.4647	74.6543	65.3682	57.1598	50.3133	44.1138	42.3278	39.7225	34.779	28.5703	19.8291	14.5052	15.7467	13.9321	11.2835	6.5827	6.5677
516	166.2398	296.1761	232.0196	269.8206	324.3388	345.0182	369.5805	349.2033	321.916	302.0342	295.4439	281.3431	272.8559	257.0933	256.7012	258.3524	258.7919	257.1041	263.4857	255.146	255.9898	240.3923	235.1609	231.9676	222.6769	220.8784	206.9428	192.3405	178.5715	162.1083	152.5774	137.4532	127.7407	116.295	103.5506	97.646	83.8143	75.8544	65.7713	58.1135	49.6006	44.5329	41.6911	37.926	35.572	30.1901	22.3725	11.8054	15.6731	14.7871	11.9778	8.2524	8.2336
518	163.7967	206.4718	208.9028	279.9332	305.7795	331.0458	362.7206	331.26	309.4058	293.961	290.9612	281.6537	272.1734	253.263	247.7988	246.4747	250.757	258.1036	247.4512	252.3723	247.7077	238.7922	226.2518	229.6631	223.9869	213.3425	201.9846	192.0236	175.6148	159.4493	150.7318	140.0928	127.6599	114.8195	106.2465	96.2068	85.8304	76.1514	66.2182	58.0381	48.8984	44.9849	41.4055	38.859	34.8887	32.3077	24.6198	12.4587	12.8952	15.8908	13.4233	8.0885	8.0701
520	161.2564	42.6033	225.3759	258.8083	286.7391	316.6818	342.9688	332.1617	298.6775	301.4739	285.4476	275.2938	265.1557	244.9711	242.9299	245.5265	245.7254	244.5903	244.1855	245.9902	239.6768	236.6534	227.5737	219.7915	211.1912	211.5316	200.3532	188.0246	173.6034	158.9989	145.5024	133.6589	125.3364	116.6018	104.2818	96.3636	87.7293	76.1489	66.6583	57.3994	49.3932	45.4356	41.2377	39.6585	36.4344	30.3932	26.8851	13.9564	9.6692	15.2717	14.0638	9.5671	9.5454
522	158.609	50.7866	183.9729	237.1533	268.6748	301.9068	335.9845	313.4932	305.9003	292.0786	273.743	270.2206	250.9114	243.0486	238.9561	243.9117	240.2286	237.8779	238.9889	240.6368	229.3914	228.1541	219.3344	221.7062	213.1286	206.6882	194.8806	182.5408	169.5931	159.308	147.053	132.8298	122.8524	114.4845	105.5684	91.8821	84.9751	75.5174	65.1878	56.7285	49.8835	45.303	41.0531	38.2885	35.7118	31.5344	28.7252	18.5012	5.799	14.0065	14.3517	11.5819	11.5555
524	155.865	59.1421	210.9076	214.9885	251.6526	286.7444	317.2413	306.3466	294.5133	280.8252	269.484	259.3358	242.4025	235.373	233.4103	240.5228	234.0201	226.5975	233.8135	234.357	225.3709	222.7693	216.4041	209.9684	204.7843	200.8132	192.697	178.5791	166.3146	157.6563	144.554	129.6755	119.9882	112.5451	102.3406	95.1816	84.4672	75.1691	66.6746	56.0291	50.0792	44.8637	40.8546	37.2755	37.9698	31.8711	29.9135	20.2083	6.7344	9.074	14.7506	11.8717	11.8447
526	153.1279	67.7156	255.2087	192.4459	234.3736	275.2087	301.395	297.9383	289.6046	276.0084	264.384	255.5705	241.9696	225.694	229.894	229.3243	225.3456	229.8259	228.4864	223.418	213.5281	216.9092	211.3213	207.0109	200.4769	194.6597	183.843	173.7464	163.2876	154.4186	137.8718	130.5053	119.869	107.6513	97.8523	89.1321	84.4409	75.2087	67.059	55.3385	49.7075	44.4341	40.6695	37.0989	36.5147	32.7109	29.9151	22.5154	10.124	3.6243	13.8455	12.3925	12.3643
528	150.3886	76.5233	221.4848	169.4764	230.9504	258.1032	285.3107	302.7095	285.313	263.9875	257.4724	244.4504	236.0564	228.1762	223.8059	225.7813	221.4467	222.9814	221.961	220.7737	211.7248	209.0092	207.4329	196.5617	196.7784	191.9086	183.7007	176.6485	163.5503	147.039	141.3046	127.6082	114.8306	110.2831	100.7274	89.284	84.1645	73.9676	66.0033	57.7755	49.3472	44.3101	40.4568	36.9332	35.9699	32.7297	29.179	26.0172	12.5859	0.6443	12.2645	13.9504	13.9186
530	147.5407	85.5252	98.732	175.549	211.3739	240.5283	268.7719	284.0515	273.8878	259.1148	248.5898	243.6385	231.8259	219.2404	212.8429	218.3067	211.9377	215.2213	217.4456	217.0199	208.8008	208.9414	204.6566	196.8589	193.3655	190.93	183.6798	173.9402	157.7064	146.5395	134.2935	123.1616	115.8492	107.2283	98.3633	89.7382	80.4396	75.379	66.7738	55.2622	48.9642	44.1704	40.1474	36.7529	35.154	32.27	30.3446	26.5847	18.7711	1.1717	6.7958	13.6007	13.5697
532	144.6058	94.7358	5.8182	170.8338	191.3225	222.2986	251.8178	286.34	276.0575	264.5129	244.1261	236.2347	222.1898	219.436	212.9598	210.9067	214.424	211.0553	207.3435	210.5655	206.5133	203.4321	194.8819	192.55	187.4018	186.1141	175.2235	162.7584	155.0709	143.4704	135.049	124.3285	113.0692	106.1776	96.8114	89.5423	82.0438	74.9532	64.6703	57.1877	48.5654	43.941	39.8253	36.5635	33.1913	32.9098	30.1225	25.7658	19.8099	3.6931	1.6501	10.292	10.2686
534	141.561	104.1435	42.9418	160.4522	170.7629	203.3694	234.4055	282.8645	256.1709	254.9327	249.1767	238.7304	213.7641	210.8404	209.6278	200.8812	204.4785	203.5139	207.6878	203.0117	199.8396	201.2368	188.3383	187.287	182.6152	179.0109	173.4646	161.6914	154.3293	141.5743	131.5735	118.2654	112.1777	103.6148	96.5014	89.2003	81.8132	74.3994	67.7976	57.6953	48.1435	43.653	39.6662	36.3594	32.9647	32.7672	29.7792	27.1018	22.37	9.5017	0	8.9414	8.921
536	138.4774	113.8072	81.0441	183.4751	149.7734	184.0542	240.7147	265.2672	260.8206	247.466	242.6962	234.9712	206.372	210.4808	202.8639	199.9423	195.5815	202.8659	197.7975	198.4233	195.5335	187.0705	186.9997	182.0921	178.8385	175.7151	170.4416	154.809	150.169	137.3406	126.6528	116.3733	110.4417	102.5238	92.1068	85.408	78.1358	70.0703	65.6972	56.9581	50.1619	43.3686	39.5127	35.9536	32.7405	32.8366	33.0169	27.9397	20.6027	13.8769	0	5.6953	5.6824
538	135.3476	82.7258	120.1888	175.5424	128.3202	201.347	219.3084	247.308	253.8438	247.2274	235.6751	219.7096	212.0409	206.8362	199.8148	193.2506	193.1389	193.5411	195.5823	192.1105	194.5148	188.2534	179.4866	177.7319	175.3985	171.1706	161.9381	158.953	144.7087	134.4417	125.0205	115.6605	110.7266	99.4134	93.4498	84.6289	77.6846	72.4174	65.4102	56.9164	50.0098	43.0863	39.261	35.4415	32.5178	29.8103	31.5387	26.4716	22.6768	17.2089	0	0	0
540	132.0981	125.815	160.3601	189.1715	158.6314	177.7116	197.3246	228.8411	245.5071	234.2346	227.9363	210.8835	202.4136	209.3689	192.2628	193.5475	192.5469	193.2235	187.0161	189.959	187.7215	180.8921	178.3638	177.2278	166.021	166.3636	164.1576	152.4454	138.2931	133.6093	121.8342	109.4028	105.4099	98.269	87.8933	83.0645	75.227	68.5064	63.8233	56.6465	49.5807	42.7838	38.7824	34.9056	32.2795	29.2342	29.7247	27.336	23.5908	19.2212	2.7897	0	0
542	129.0298	119.4132	108.337	98.6694	168.767	153.8283	176.5116	210.3596	251.9855	235.4939	223.3137	210.911	205.5337	203.0603	188.0793	185.5879	190.223	184.2089	187.9713	184.2723	181.6932	179.4395	173.1498	171.1447	165.9971	165.4553	157.1846	152.7849	138.9948	129.9154	123.9134	112.0836	105.0765	96.3181	92.3742	81.8925	76.1282	69.8069	62.7493	55.9323	50.3295	42.0573	38.3696	34.7706	31.9396	28.702	29.631	26.471	21.9203	18.455	12.1186	0	0
544	231.2855	143.999	65.944	0	172.6543	129.2173	156.3982	191.2711	238.1064	223.3748	214.8801	204.4378	201.0357	190.9271	186.9604	181.6206	185.1093	183.9658	175.6294	179.6139	173.2693	177.2276	166.9056	164.4772	164.442	164.1324	153.6852	144.6473	133.5146	128.1248	119.3146	109.0663	101.2947	94.7955	86.0585	80.307	74.8715	68.3191	61.2561	55.7016	50.5033	42.3785	37.9287	34.6171	31.2509	28.1422	27.6352	27.6789	24.1739	19.5639	13.8753	0	0
546	278.8316	175.3774	82.8253	37.3705	168.6839	103.8247	135.5922	195.7132	219.7239	220.9596	211.8363	209.3062	190.2469	183.7957	180.7838	180.8183	174.8482	177.2968	177.5549	173.0659	170.1317	167.5577	157.87	160.0533	158.3815	157.8603	149.436	143.3201	132.9776	125.6247	117.0069	107.8991	102.6086	91.654	85.364	79.2681	74.0091	67.5086	60.5724	58.0792	50.3462	42.1997	37.4393	34.0994	30.513	27.5399	24.7254	27.9942	23.8151	20.3487	16.2868	0	0
548	274.6571	183.2971	89.0558	75.7793	180.1562	77.698	159.2601	175.224	200.6712	202.1415	205.151	200.9412	193.7526	182.6055	178.4477	171.1535	172.6985	171.9139	168.5478	171.3723	168.399	164.3258	160.3364	154.2	153.5496	154.4206	150.6037	137.5067	128.0005	122.0457	116.6232	104.4689	98.9292	91.1036	85.3467	76.4087	71.5876	66.6894	59.9483	53.1276	49.8004	42.0014	36.9031	33.3715	29.9152	26.8967	24.3473	26.5967	24.1745	21.7413	17.3841	6.7078	6.6925
550	295.973	191.3638	113.6976	115.2329	180.8341	123.5452	137.4198	154.1739	181.0831	207.3274	202.7721	196.9359	191.0675	174.4431	174.5682	181.0745	172.1691	164.545	167.2825	166.3221	159.9505	159.1874	155.9779	152.8868	147.2539	150.058	141.7543	136.7407	127.1212	120.5129	110.9792	102.9871	95.9581	90.0975	82.5654	76.4976	70.5911	64.8225	60.7834	55.0248	49.4897	44.1409	38.5426	32.614	29.2922	26.3281	23.9516	24.1568	24.0105	20.8464	17.9517	11.5039	11.4777
552	278.8605	200.1408	157.9571	156.1769	154.2918	124.4024	115.3316	133.6708	161.4153	192.0791	189.6876	175.7124	179.159	169.6152	168.5992	167.4831	161.9092	163.7973	163.5496	153.4918	157.9552	157.7808	154.0348	149.7278	145.6623	144.5744	141.5437	133.204	123.779	118.6933	109.5007	98.8931	92.9433	87.8929	82.3838	75.2163	71.0725	62.0155	56.9211	52.5977	47.0288	42.9993	37.6627	31.9163	28.7749	25.8597	23.6043	21.225	23.5243	22.2152	18.041	14.7567	14.7231
554	231.7355	209.0983	159.584	117.3621	81.1744	128.6548	92.5375	113.2414	141.0889	194.5422	192.4247	176.6007	175.592	163.5808	158.3756	160.059	155.2037	156.7763	157.5475	153.5109	150.3209	151.3925	140.9881	141.531	141.2333	140.0435	139.2479	128.6082	119.8472	117.4684	104.4132	95.7058	92.5143	85.8237	76.946	74.2773	66.0391	65.2422	57.1467	51.9349	48.253	42.06	37.4939	31.1823	28.3305	25.3649	23.2353	20.4511	22.1717	19.9268	20.1927	15.8766	15.8405
556	270.9591	207.7768	126.8576	58.3396	0	142.3872	69.0653	92.199	150.5008	180.938	174.1329	176.4751	177.9676	161.3921	162.3128	156.639	153.3129	154.0841	147.8181	152.9291	147.8285	151.1323	142.4787	137.9896	135.3151	139.3504	129.7793	129.197	121.5266	112.315	105.7397	93.6477	88.3328	84.394	77.5616	71.5387	65.425	60.9133	55.8291	51.1689	45.8889	41.8723	36.3327	33.5619	27.8702	25.0265	22.7513	19.6517	21.9108	21.3266	19.1359	14.6943	14.6609
558	267.9143	226.586	138.369	63.6982	27.5	171.4372	44.8904	108.5761	138.2795	166.9047	190.2169	166.5628	171.1927	157.2492	152.1038	147.446	153.008	144.0787	142.3277	146.3083	147.748	143.3032	135.802	133.7286	135.5712	132.4196	131.0292	125.5998	116.3804	107.7482	98.2842	94.6172	86.0609	83.3086	77.0023	68.9003	61.9532	60.2597	57.0314	52.6681	48.1005	40.0393	36.4559	31.2804	27.3929	24.6752	22.0436	18.8257	19.0109	21.6356	18.7617	14.5994	14.5662
560	301.8802	263.6691	140.6456	64.8205	55.8777	121.9549	69.1163	95.6764	125.6247	152.3711	170.4405	164.8405	165.414	153.7307	148.9041	150.4077	145.9293	146.8054	147.2328	142.1287	137.375	137.1178	140.0404	132.4106	132.7539	133.3851	124.4546	118.8156	109.3363	104.0059	98.3599	91.7811	83.7887	81.2534	74.3139	67.225	66.8912	59.6668	54.5683	49.7965	43.2025	40.4776	37.5122	30.6518	26.888	24.0949	21.3037	17.9654	14.4701	20.7204	19.2175	16.0802	16.0436
562	223.1419	239.3603	142.9209	81.2316	85.1331	146.3893	94.2884	82.3466	111.5759	137.332	167.6076	162.4454	158.1951	145.7161	148.2387	145.3057	143.8092	143.017	137.1776	139.8567	135.7115	133.1385	130.7273	129.1689	128.9225	127.2491	121.8946	115.574	111.2701	101.3279	95.9377	87.5404	85.2122	78.8828	72.6889	68.183	60.7559	57.5959	51.9604	48.1666	42.5365	39.6949	35.9895	32.3165	26.3543	23.3803	20.464	17.07	15.0004	19.8578	17.8755	15.7843	15.7484
564	273.2839	249.1557	145.2015	113.6502	115.2717	115.8387	107.1637	68.5929	96.1009	121.7966	161.1952	153.7135	151.2583	139.0883	138.1298	138.9156	134.376	132.9823	136.4396	135.4414	132.8555	130.1697	127.1219	122.8134	124.5859	122.5831	119.2038	108.7621	105.011	100.897	93.2151	84.1973	81.059	75.0216	68.2266	66.6598	60.1051	58.8698	49.5555	47.8104	43.8277	40.0216	34.7565	33.6323	28.995	22.6341	19.5904	16.8678	15.5399	17.1321	17.0857	17.18	17.1409
566	261.8398	251.9409	147.5772	115.3422	87.6404	63.3844	102.2726	54.4494	80.1923	127.5105	147.9311	153.2248	141.4279	137.4752	133.267	131.719	130.7721	129.0893	131.1149	131.6983	130.3644	122.5914	121.1926	119.0163	118.6381	115.9883	113.0439	106.3776	100.5665	99.0237	86.9365	83.6799	76.396	73.8005	68.2462	64.75	58.4518	54.9989	49.034	45.1449	42.4448	37.911	34.2749	32.1563	29.0074	21.8697	19.0613	17.0318	16.0984	15.681	18.4901	16.4964	16.4588
568	166.8851	286.6907	183.6185	112.5827	51.9851	0	130.2409	39.8894	97.6161	110.0569	134.2903	143.0383	131.3612	134.1708	130.1856	128.0251	125.0419	127.9402	124.6482	129.8848	125.0101	122.4514	117.7418	117.4593	115.0931	110.536	113.0166	104.2371	96.8802	95.2648	87.8799	82.0141	74.8152	72.0676	68.4344	61.7456	55.6351	52.5572	49.1222	45.0509	39.6812	36.944	34.9317	29.9016	25.5764	21.085	19.2648	17.2033	16.6766	15.0352	18.3003	16.0987	16.062
570	224.4974	215.3609	196.5504	120.0305	54.7751	25.646	113.7222	69.0468	79.8781	92.0277	120.1739	137.6274	138.4923	126.9745	127.3239	122.3801	126.797	128.6977	122.7641	119.9736	116.0236	118.0832	113.65	112.0242	105.7919	110.2944	108.1352	101.2493	98.5755	90.0287	85.4061	78.5082	76.658	69.4948	66.882	58.2132	55.2865	53.2664	46.7704	45.4184	41.2358	35.604	32.3427	31.228	28.4966	24.3288	19.4654	17.8006	16.9361	14.3622	16.4989	15.5201	15.4848
572	231.41	214.7155	214.8971	120.6802	54.4094	52.2102	109.735	82.661	61.7115	75.7429	105.8084	138.6973	129.0458	129.4981	126.3876	118.9931	123.8617	121.6855	119.9114	120.7541	119.24	113.2157	113.554	109.645	108.8496	108.7515	106.2839	101.6547	93.4447	89.3009	83.9516	74.0362	71.8944	68.7696	61.3595	57.9154	55.2312	51.2622	45.526	42.8501	41.2568	35.1827	32.6483	31.5548	29.3782	24.7012	19.7052	18.4473	16.5636	13.6914	14.3949	15.8588	15.8227
574	206.433	197.7637	207.712	121.282	69.0624	79.6963	129.6368	95.4569	42.9033	61.0655	90.8993	135.8734	122.6931	120.4922	122.6782	121.1055	118.8419	113.7603	111.8767	113.6109	112.7433	110.3942	110.2947	105.4968	104.5669	101.8123	102.5076	95.4651	90.6379	86.8633	79.2206	76.8109	70.8256	63.7539	61.5584	56.7989	52.209	49.0863	45.237	42.7518	36.0637	35.2721	33.1563	29.2159	27.6857	23.3853	19.9418	18.4231	16.1687	12.9896	9.7588	14.5135	14.4804
576	227.589	213.2838	218.7129	121.8341	99.52	108.107	117.3939	90.1915	23.4551	45.8694	106.127	124.0791	117.7007	118.9053	113.7939	112.9388	114.6069	113.2187	111.5359	114.8783	110.4924	105.9349	106.1293	103.5855	102.7803	100.4893	101.4048	93.4832	87.9563	83.6583	78.981	73.0865	67.2923	63.3898	59.0432	51.8526	50.5558	49.3145	42.2444	39.8786	35.7402	34.3446	32.3118	29.146	26.9357	23.8682	20.1749	18.0408	15.4912	12.2566	9.3213	13.9668	13.935
578	214.3325	196.0401	195.8705	122.3364	99.1727	78.7018	62.166	102.8182	3.3697	78.1188	91.486	111.8322	114.0433	118.5746	114.5084	110.2224	113.0777	107.7911	107.1749	107.8337	104.4521	104.1318	97.1615	97.9212	100.4281	99.6476	98.0208	89.0545	86.5786	82.5131	74.2071	69.9951	66.8583	60.557	55.1419	54.4028	51.3839	46.4907	43.8832	39.4356	36.2228	32.5122	31.3831	29.9383	25.9001	25.2412	23.046	17.6357	14.7826	11.7061	8.8641	12.7744	12.7453
580	165.2364	135.069	143.253	137.3438	84.5756	39.0113	0	128.4957	52.6155	63.4732	76.3315	99.1354	116.1956	108.707	111.3813	109.1497	103.9408	101.8156	105.0317	107.208	100.9537	100.0276	100.8832	98.3421	98.0679	95.6682	94.3189	85.166	86.3445	77.7433	71.806	68.5562	65.3886	58.4512	56.832	51.6107	49.814	46.69	42.7108	39.3132	36.3057	33.3755	30.1235	28.4221	26.531	24.1363	20.5982	17.2081	14.1514	11.24	8.3873	10.3592	10.3356
582	152.4871	121.1545	119.7241	139.4322	88.1496	43.8226	24.8995	102.9024	55.7984	48.3514	62.0981	86.0149	109.8819	99.8776	103.3362	103.5193	105.4984	102.8764	104.5699	99.0665	99.5331	100.4037	96.1539	90.2474	90.6828	90.7705	93.5534	84.7415	80.6063	73.4903	71.4938	66.6748	61.6111	55.5988	54.785	49.6242	48.4705	43.5469	38.742	40.2996	36.3256	30.8885	28.4504	26.0007	26.3753	22.5244	19.6253	16.763	13.7166	10.7565	7.8933	5.0378	5.0263
584	105.532	106.9479	114.3012	125.5291	96.5293	50.9493	50.6223	114.9107	62.6868	32.7311	48.8233	72.4378	105.5238	102.331	101.5885	94.968	100.8332	96.5415	96.2074	99.2247	99.6686	91.3411	92.055	95.4987	89.6028	92.2631	86.4142	82.0707	76.5146	72.237	68.2704	64.1186	61.5444	57.1546	54.3372	51.324	45.6464	42.4681	41.0698	38.2628	35.6346	32.1659	29.5622	26.2924	26.4828	22.8399	18.912	18.0588	13.2608	10.2876	7.3794	4.6498	1.2144
586	111.5884	100.8203	106.1894	147.503	105.1136	68.6365	77.1593	132.0733	77.2359	16.6109	35.108	78.1682	97.1126	97.7834	105.6526	98.5764	97.2686	95.3922	96.5069	93.5077	88.9661	91.6294	90.0966	86.6934	86.5737	88.9733	86.3703	80.1787	74.807	69.2443	67.4636	63.3931	56.7587	55.487	51.2848	50.2679	46.8506	43.1759	38.2664	35.8129	30.5843	31.5969	28.9638	27.8435	25.1665	23.7481	20.4678	17.2164	12.782	9.7972	7.2845	4.2465	0
588	62.5083	65.2604	113.2025	129.7415	113.8994	97.3794	104.5015	114.0779	74.2335	0	50.4016	68.769	88.3863	99.6364	97.223	96.5473	93.4631	94.4191	92.3812	91.0125	88.0982	90.6912	90.5921	85.2584	82.2343	82.9711	81.2425	76.0271	74.0547	68.0288	68.5089	61.3145	55.4087	54.5596	51.8722	47.097	44.895	41.8632	35.7461	35.1114	31.6702	30.2548	28.1227	28.5108	24.4893	22.0086	19.2991	17.1133	12.2806	9.5091	7.4054	3.8282	0
590	153.2238	75.3582	113.2463	124.8776	122.9027	100.1756	82.0319	67.7123	76.1505	24.3065	40.908	59.0615	79.3624	87.9933	93.6522	88.9831	89.6298	90.326	89.35	87.5882	89.4439	84.9942	81.5166	86.3941	85.8372	83.3826	83.069	73.2013	72.2691	66.0074	62.6635	58.9727	55.9431	51.5192	48.3768	45.1244	40.0009	40.5272	36.6737	32.2752	31.0698	29.599	26.9315	24.0984	25.5008	23.2306	20.7403	18.1081	11.7585	9.6615	7.2763	3.3956	0
592	140.4723	105.627	138.2573	132.1805	102.7869	63.2254	29.8289	0	65.2697	38.8577	31.2329	49.5627	70.2946	90.2497	90.7207	90.0369	90.4529	88.5612	85.9709	86.8723	84.5107	84.6823	84.8219	80.1833	78.2393	78.4963	75.7576	76.1215	65.9913	67.7571	63.8037	56.1809	55.246	51.5338	48.1293	44.7448	39.9891	40.8211	34.2043	33.2011	30.9067	27.3216	26.6774	26.2531	24.1776	20.9756	20.8284	17.5407	14.9828	9.8496	6.9112	3.6338	0
594	143.8139	69.6822	94.4654	108.6471	149.5615	92.5346	35.9185	25.0472	104.3906	39.2639	21.1895	40.0351	60.8544	94.8584	85.1032	93.8328	86.4985	86.4737	84.6476	77.5107	82.8971	80.4199	78.5779	79.0269	76.4837	75.4669	73.4046	71.693	67.0705	64.9773	59.3782	57.7875	52.0478	51.1378	47.4537	43.4612	39.0694	37.3877	32.027	32.0739	27.9152	29.0911	26.5094	24.0716	21.5527	21.1205	20.0936	17.5684	15.7002	10.0382	6.995	0	0
596	104.2972	101.6432	92.7357	116.6595	154.2016	77.5235	66.7197	51.0334	97.6183	50.9208	10.7829	30.1588	63.967	82.7714	79.9786	85.4168	84.1434	81.4792	82.9772	81	77.6187	85.2224	76.4957	76.6045	77.3488	73.6215	73.638	70.2641	64.046	62.8806	59.7558	56.5252	52.4115	47.248	43.912	42.0763	39.8826	35.4063	33.4954	31.9366	30.2439	25.9604	24.3296	24.9246	22.0325	21.729	20.1201	16.8804	14.5851	10.2316	7.5271	0	0
598	117.7907	104.467	66.2568	110.1404	128.3579	115.772	94.669	77.9956	105.7875	36.3974	0	31.7034	51.1788	70.233	72.3933	78.2755	77.3482	79.1125	84.0699	78.9307	77.2464	80.5457	73.3596	69.2404	72.5208	75.4734	70.8771	68.0711	64.7008	60.1597	54.7672	49.5355	49.7032	49.0053	44.8649	40.3722	37.8793	33.8825	33.9525	30.935	26.222	26.5929	24.4128	22.6185	22.3356	19.3297	19.0413	17.9834	14.4279	11.3439	0	0	0
600	178.6164	88.6585	68.64	105.0727	176.0706	146.7356	123.6155	105.9269	92.5672	43.6004	0	18.4565	37.9023	57.2028	76.6486	76.3972	79.4993	73.6243	78.2294	73.5398	73.386	71.5184	69.4882	73.7195	72.2829	66.5005	70.2039	67.9218	60.9549	57.3058	55.7506	50.6772	47.082	45.5406	43.7186	38.6385	36.3569	35.2256	30.3182	29.5319	26.198	24.9397	23.0973	23.3453	22.0284	19.1009	18.5344	16.4899	14.2482	11.706	0	0	0
