Description	PHS-30 (clean blank)																																																				
EEM type	"Dilution- & Scatter-corrected, Calibrated Data (ppb QSE)"																																																				
Scan date	1/19/2012 15:34																																																				
Excitation	240-500nm by 5nm																																																				
Emission	290-600nm by 2nm																																																				
Calibration	Michael_Fluoromax4_April08 (07-Apr-2008)																																																				
Slit settings	"5nm Excitation, 5nm Emission"																																																				
Dilution	40																																																				
Row 1	Excitation(nm)																																																				
Col 1	Emission(nm)																																																				
Data	Fluorescence(ppb QSE)																																																				
																																																					
	240	245	250	255	260	265	270	275	280	285	290	295	300	305	310	315	320	325	330	335	340	345	350	355	360	365	370	375	380	385	390	395	400	405	410	415	420	425	430	435	440	445	450	455	460	465	470	475	480	485	490	495	500
290	-0.0001	-0.0001	-0.0001	-0.0001	-0.0001	0	0	0	0	0	0	0	0	0	0	0	0	0	0	0	0	0	0	0	0	0	0	0	0	0	0	0	0	0	0	0	0	0	0	0	0	0	0	0	0	0	0	0	0	0	0	0	0
292	-0.0001	-0.0001	-0.0001	-0.0001	-0.0001	0	0	0.6005	0	0	0	0	0	0	0	0	0	0	0	0	0	0	0	0	0	0	0	0	0	0	0	0	0	0	0	0	0	0	0	0	0	0	0	0	0	0	0	0	0	0	0	0	0
294	-0.0001	-0.0001	-0.0001	-0.0001	-0.0001	0	0	1.1879	0	0	0	0	0	0	0	0	0	0	0	0	0	0	0	0	0	0	0	0	0	0	0	0	0	0	0	0	0	0	0	0	0	0	0	0	0	0	0	0	0	0	0	0	0
296	-0.0001	-0.0001	-0.0001	-0.0001	-0.0001	0	1.8057	1.7599	0	0	0	0	0	0	0	0	0	0	0	0	0	0	0	0	0	0	0	0	0	0	0	0	0	0	0	0	0	0	0	0	0	0	0	0	0	0	0	0	0	0	0	0	0
298	-0.0001	-0.0001	-0.0001	-0.0001	0	0	3.5614	2.3139	2.1753	0	0	0	0	0	0	0	0	0	0	0	0	0	0	0	0	0	0	0	0	0	0	0	0	0	0	0	0	0	0	0	0	0	0	0	0	0	0	0	0	0	0	0	0
300	-0.0001	-0.0001	-0.0001	-0.0001	0	1.8588	4.6818	2.8517	4.2896	0	0	0	0	0	0	0	0	0	0	0	0	0	0	0	0	0	0	0	0	0	0	0	0	0	0	0	0	0	0	0	0	0	0	0	0	0	0	0	0	0	0	0	0
302	-0.0001	-0.0001	-0.0001	-0.0001	0	3.7239	5.2756	8.0784	6.4452	0	0	0	0	0	0	0	0	0	0	0	0	0	0	0	0	0	0	0	0	0	0	0	0	0	0	0	0	0	0	0	0	0	0	0	0	0	0	0	0	0	0	0	0
304	-0.0001	-0.0001	-0.0001	-0.0001	0	5.5951	5.8712	13.3236	8.608	5.1728	0	0	0	0	0	0	0	0	0	0	0	0	0	0	0	0	0	0	0	0	0	0	0	0	0	0	0	0	0	0	0	0	0	0	0	0	0	0	0	0	0	0	0
306	-0.0001	-0.0001	-0.0001	-0.0001	0	7.4687	11.2513	17.0223	10.7725	10.3587	0	0	0	0	0	0	0	0	0	0	0	0	0	0	0	0	0	0	0	0	0	0	0	0	0	0	0	0	0	0	0	0	0	0	0	0	0	0	0	0	0	0	0
308	-0.0001	-0.0001	-0.0001	-0.0001	0	9.342	16.6368	19.1628	21.6526	15.5499	0	0	0	0	0	0	0	0	0	0	0	0	0	0	0	0	0	0	0	0	0	0	0	0	0	0	0	0	0	0	0	0	0	0	0	0	0	0	0	0	0	0	0
310	-0.0001	-0.0001	-0.0001	-0.0001	0	16.4074	22.0305	21.3061	32.5534	20.749	7.4757	0	0	0	0	0	0	0	0	0	0	0	0	0	0	0	0	0	0	0	0	0	0	0	0	0	0	0	0	0	0	0	0	0	0	0	0	0	0	0	0	0	0
312	-0.0001	-0.0001	-0.0001	-0.0001	0	19.108	27.2673	31.8823	40.3166	25.7997	14.8739	0	0	0	0	0	0	0	0	0	0	0	0	0	0	0	0	0	0	0	0	0	0	0	0	0	0	0	0	0	0	0	0	0	0	0	0	0	0	0	0	0	0
314	-0.0001	-0.0001	-0.0001	-0.0001	0	36.1697	32.4473	42.349	45.1156	36.6535	22.1944	0	0	0	0	0	0	0	0	0	0	0	0	0	0	0	0	0	0	0	0	0	0	0	0	0	0	0	0	0	0	0	0	0	0	0	0	0	0	0	0	0	0
316	-0.0001	-0.0001	-0.0001	-0.0001	0.4369	36.3008	52.9096	52.5312	49.6956	47.2371	29.3396	9.2356	0	0	0	0	0	0	0	0	0	0	0	0	0	0	0	0	0	0	0	0	0	0	0	0	0	0	0	0	0	0	0	0	0	0	0	0	0	0	0	0	0
318	-0.0001	-0.0001	-0.0001	-0.0001	11.1289	54.1954	63.6282	62.3232	59.6148	55.5264	36.2361	18.2516	0	0	0	0	0	0	0	0	0	0	0	0	0	0	0	0	0	0	0	0	0	0	0	0	0	0	0	0	0	0	0	0	0	0	0	0	0	0	0	0	0
320	9.7265	2.0181	-0.0001	-0.0001	24.8999	54.9041	72.5747	71.864	69.2806	61.7095	45.434	27.0476	5.1145	0	0	0	0	0	0	0	0	0	0	0	0	0	0	0	0	0	0	0	0	0	0	0	0	0	0	0	0	0	0	0	0	0	0	0	0	0	0	0	0
322	29.7182	-0.0001	-0.0001	17.3332	32.6171	58.7717	77.4737	83.4919	78.3273	67.4093	54.144	35.4582	15.9886	0	0	0	0	0	0	0	0	0	0	0	0	0	0	0	0	0	0	0	0	0	0	0	0	0	0	0	0	0	0	0	0	0	0	0	0	0	0	0	0
324	36.9208	16.5888	1.9045	22.0659	43.3512	70.8569	78.5056	87.0359	87.024	75.1714	62.0389	43.5653	26.4897	6.8429	0	0	0	0	0	0	0	0	0	0	0	0	0	0	0	0	0	0	0	0	0	0	0	0	0	0	0	0	0	0	0	0	0	0	0	0	0	0	0
326	83.1627	25.5836	16.4387	20.4258	52.96	64.5396	89.1748	100.7455	95.3278	82.585	69.1127	54.8801	36.6008	14.2608	0	0	0	0	0	0	0	0	0	0	0	0	0	0	0	0	0	0	0	0	0	0	0	0	0	0	0	0	0	0	0	0	0	0	0	0	0	0	0
328	72.6567	16.1842	26.063	25.6229	41.7686	75.8783	85.4137	96.2188	96.6224	89.6381	75.8532	65.7271	46.3072	23.7496	0.377	0	0	0	0	0	0	0	0	0	0	0	0	0	0	0	0	0	0	0	0	0	0	0	0	0	0	0	0	0	0	0	0	0	0	0	0	0	0
330	44.4349	51.6187	33.0734	29.6535	57.7032	74.9018	89.4382	111.6967	103.9831	96.3627	85.5435	75.2701	55.6196	32.8686	10.034	0	0	0	0	0	0	0	0	0	0	0	0	0	0	0	0	0	0	0	0	0	0	0	0	0	0	0	0	0	0	0	0	0	0	0	0	0	0
332	91.1059	55.8099	41.8111	47.452	59.598	84.5765	98.3795	107.2544	115.67	101.6557	93.7849	82.6604	60.9178	41.1715	24.6464	0	0	0	0	0	0	0	0	0	0	0	0	0	0	0	0	0	0	0	0	0	0	0	0	0	0	0	0	0	0	0	0	0	0	0	0	0	0
334	70.4497	69.9214	53.665	43.8182	63.3573	90.9281	93.3212	109.0897	116.9866	117.3557	101.3584	89.4543	65.7847	48.9017	31.3276	10.5088	0	0	0	0	0	0	0	0	0	0	0	0	0	0	0	0	0	0	0	0	0	0	0	0	0	0	0	0	0	0	0	0	0	0	0	0	0
336	99.0982	75.5309	44.3351	54.5574	64.9322	87.9942	98.1265	106.7606	119.6107	122.2647	108.3736	93.0647	71.3621	56.1153	37.5726	17.8075	0	0	0	0	0	0	0	0	0	0	0	0	0	0	0	0	0	0	0	0	0	0	0	0	0	0	0	0	0	0	0	0	0	0	0	0	0
338	135.9988	83.5691	53.8572	48.3898	69.5524	93.8859	100.3939	109.2952	119.4434	121.6726	114.8606	96.3673	77.5711	62.5878	43.4029	22.2012	0	0	0	0	0	0	0	0	0	0	0	0	0	0	0	0	0	0	0	0	0	0	0	0	0	0	0	0	0	0	0	0	0	0	0	0	0
340	106.5142	84.5997	62.9957	60.8764	69.4716	94.9723	100.0502	109.7534	114.2216	120.0053	117.9752	99.2736	83.2427	68.5366	48.7871	27.1594	0	0	0	0	0	0	0	0	0	0	0	0	0	0	0	0	0	0	0	0	0	0	0	0	0	0	0	0	0	0	0	0	0	0	0	0	0
342	145.7857	93.5605	72.5615	71.337	76.3062	96.2339	104.5521	111.8953	118.2955	118.6694	123.8148	102.3402	88.6246	73.7806	54.0182	31.9171	1.7431	0	0	0	0	0	0	0	0	0	0	0	0	0	0	0	0	0	0	0	0	0	0	0	0	0	0	0	0	0	0	0	0	0	0	0	0
344	131.2172	107.7589	64.9205	66.127	75.7752	93.7601	106.0349	107.6959	117.2037	121.0404	117.5695	105.0735	93.5677	78.0489	59.5631	36.3609	10.2971	0	0	0	0	0	0	0	0	0	0	0	0	0	0	0	0	0	0	0	0	0	0	0	0	0	0	0	0	0	0	0	0	0	0	0	0
346	128.2874	93.0828	82.0481	71.5292	78.6089	92.578	100.0133	110.1635	119.1196	121.5194	121.2947	108.0886	98.3298	82.1582	64.8626	40.5969	16.2565	0	0	0	0	0	0	0	0	0	0	0	0	0	0	0	0	0	0	0	0	0	0	0	0	0	0	0	0	0	0	0	0	0	0	0	0
348	153.1817	109.2006	78.6293	79.7435	83.3076	99.0438	100.3656	108.3021	112.2515	119.3082	126.1649	114.7673	102.9681	86.8094	69.139	44.666	21.9324	2.0425	0	0	0	0	0	0	0	0	0	0	0	0	0	0	0	0	0	0	0	0	0	0	0	0	0	0	0	0	0	0	0	0	0	0	0
350	154.4664	112.9741	85.2155	79.7631	81.778	105.0031	108.1507	107.7729	116.6304	121.162	124.7294	118.0924	107.243	91.1175	72.3031	49.4501	27.2982	8.0769	0	0	0	0	0	0	0	0	0	0	0	0	0	0	0	0	0	0	0	0	0	0	0	0	0	0	0	0	0	0	0	0	0	0	0
352	143.309	125.099	104.6096	72.9146	87.6989	96.441	109.6667	117.0819	117.201	123.939	127.9984	124.5921	114.5796	95.1018	75.2229	53.9343	32.36	10.782	2.6307	0	0	0	0	0	0	0	0	0	0	0	0	0	0	0	0	0	0	0	0	0	0	0	0	0	0	0	0	0	0	0	0	0	0
354	153.807	147.9959	104.2055	94.8769	95.6331	103.0298	110.8647	115.3455	120.3245	122.7735	132.5592	124.3593	120.7737	98.745	78.8066	58.1095	37.2637	19.7351	9.3053	0	0	0	0	0	0	0	0	0	0	0	0	0	0	0	0	0	0	0	0	0	0	0	0	0	0	0	0	0	0	0	0	0	0
356	164.5866	135.9642	119.2918	98.6733	102.9193	106.9426	113.673	118.1965	118.2559	127.1655	126.4334	130.6809	121.2118	102.3987	82.5107	62.4825	43.1965	28.2804	15.1054	3.0329	0	0	0	0	0	0	0	0	0	0	0	0	0	0	0	0	0	0	0	0	0	0	0	0	0	0	0	0	0	0	0	0	0
358	163.2783	139.3535	111.9567	98.7678	99.354	111.5027	114.1556	114.2031	121.5332	126.2314	127.8165	130.4673	126.3369	107.4337	86.3823	66.8037	51.0301	36.5099	21.8925	11.5544	2.6631	0	0	0	0	0	0	0	0	0	0	0	0	0	0	0	0	0	0	0	0	0	0	0	0	0	0	0	0	0	0	0	0
360	177.9429	168.2202	113.333	107.4673	109.2777	102.3219	118.3195	116.5638	126.4858	127.0267	129.1925	131.3335	128.8517	111.3763	90.0078	72.9004	58.4841	44.357	30.9146	20.4866	6.5541	0	0	0	0	0	0	0	0	0	0	0	0	0	0	0	0	0	0	0	0	0	0	0	0	0	0	0	0	0	0	0	0
362	193.7386	158.401	133.3657	113.6657	106.7475	120.649	117.1955	115.3903	124.248	127.9027	128.1581	133.5957	130.0202	118.7768	94.0473	80.2129	66.0877	52.42	39.7956	27.5172	13.5445	1.3189	0	0	0	0	0	0	0	0	0	0	0	0	0	0	0	0	0	0	0	0	0	0	0	0	0	0	0	0	0	0	0
364	202.4157	167.7107	134.7261	127.4062	121.3593	122.2368	126.613	125.0928	130.4258	133.2392	136.6876	136.5182	133.5121	122.366	106.4825	87.2632	73.4273	60.6711	48.3872	36.3288	19.5863	9.7859	0	0	0	0	0	0	0	0	0	0	0	0	0	0	0	0	0	0	0	0	0	0	0	0	0	0	0	0	0	0	0
366	211.1162	173.3638	154.1441	126.3038	131.4913	125.7139	126.3721	130.9618	133.9739	136.9017	142.0035	140.088	134.4881	131.3588	113.676	94.129	81.0214	68.6934	56.736	44.0029	25.8128	12.9965	3.8598	0	0	0	0	0	0	0	0	0	0	0	0	0	0	0	0	0	0	0	0	0	0	0	0	0	0	0	0	0	0
368	215.7503	191.638	166.3919	146.1155	137.4962	131.9764	139.8825	135.6065	141.7523	142.3381	144.4775	143.8267	144.2524	135.3488	122.6451	100.8303	88.6481	76.691	64.6009	51.4706	37.2148	19.2732	10.4613	0	0	0	0	0	0	0	0	0	0	0	0	0	0	0	0	0	0	0	0	0	0	0	0	0	0	0	0	0	0
370	215.1115	196.1194	157.9492	149.1271	151.0283	143.8432	136.4025	138.4062	141.6678	145.9193	152.3836	149.6599	149.1349	141.9419	131.0058	115.3487	96.018	84.4265	71.6937	58.7021	45.6412	28.5879	15.0769	0	0	0	0	0	0	0	0	0	0	0	0	0	0	0	0	0	0	0	0	0	0	0	0	0	0	0	0	0	0
372	247.8478	216.3233	187.0686	158.0682	160.7484	151.94	149.4062	148.9994	147.7107	151.1324	152.8206	155.4237	157.3315	152.4525	140.2593	124.2396	103.6613	91.8557	78.9518	67.9236	54.7021	36.014	20.8691	8.7226	0	0	0	0	0	0	0	0	0	0	0	0	0	0	0	0	0	0	0	0	0	0	0	0	0	0	0	0	0
374	266.6099	226.9353	203.4402	179.0856	159.814	162.3536	155.6256	157.7586	161.4603	157.2001	160.7923	159.5361	159.6137	160.6423	147.3416	134.5967	111.1354	100.7597	89.821	78.8248	63.5771	45.5907	25.3506	14.8807	0	0	0	0	0	0	0	0	0	0	0	0	0	0	0	0	0	0	0	0	0	0	0	0	0	0	0	0	0
376	276.8366	252.1507	207.8499	181.1134	182.6578	173.7391	162.3655	160.0221	161.7666	163.7092	171.9412	173.1353	175.1563	163.9531	157.3942	141.3722	126.4729	111.248	100.3739	88.6256	72.203	54.0633	36.9674	18.5815	5.7959	0	0	0	0	0	0	0	0	0	0	0	0	0	0	0	0	0	0	0	0	0	0	0	0	0	0	0	0
378	291.1689	274.7662	223.6297	202.177	188.9483	181.4426	172.8969	173.0431	167.8146	170.9415	176.7588	182.5057	179.731	175.2704	161.3972	154.0622	136.0583	121.3783	110.5798	98.1087	80.5553	63.6926	43.2347	25.0055	14.1243	0	0	0	0	0	0	0	0	0	0	0	0	0	0	0	0	0	0	0	0	0	0	0	0	0	0	0	0
380	321.0312	286.287	244.1339	222.6547	209.7348	198.0216	184.5009	179.3968	184.7612	179.1185	187.2842	188.3649	190.6693	184.019	176.5876	167.2995	147.1426	131.2366	119.7328	106.7412	88.6881	73.0782	53.7829	32.8767	19.5719	4.8448	0	0	0	0	0	0	0	0	0	0	0	0	0	0	0	0	0	0	0	0	0	0	0	0	0	0	0
382	338.6706	283.2637	256.5699	235.3343	213.6119	204.1297	186.4775	188.9699	191.7237	185.5569	194.5887	194.8759	197.3324	195.5091	186.6262	177.9594	158.9938	141.4663	129.2207	115.0673	100.0547	82.5949	62.4262	42.0989	25.7235	12.9867	0	0	0	0	0	0	0	0	0	0	0	0	0	0	0	0	0	0	0	0	0	0	0	0	0	0	0
384	353.9479	318.6561	263.9405	260.624	228.2613	215.2882	208.4901	194.8725	197.2955	193.9944	202.2831	206.0428	205.2018	202.8231	198.5061	185.7372	172.5088	155.666	138.5506	123.254	111.24	91.9589	71.2623	50.2102	32.6912	18.7126	2.6461	0	0	0	0	0	0	0	0	0	0	0	0	0	0	0	0	0	0	0	0	0	0	0	0	0	0
386	357.8238	365.0894	289.7134	271.4666	239.1121	222.4335	210.7428	206.8837	210.5907	204.8798	214.279	217.0505	214.0076	213.5493	207.4623	199.2835	185.5937	168.0047	148.2749	134.809	121.8145	101.5479	80.2542	60.1895	40.4749	25.8794	10.8005	0	0	0	0	0	0	0	0	0	0	0	0	0	0	0	0	0	0	0	0	0	0	0	0	0	0
388	384.8781	353.2897	288.4905	284.9568	262.7795	234.8419	225.8439	215.8445	212.1868	213.0385	213.9238	217.3281	223.178	222.5839	219.9657	212.4871	193.4945	181.0704	158.5092	146.8178	131.9111	111.0619	89.5056	69.987	48.6941	33.0326	15.7403	0	0	0	0	0	0	0	0	0	0	0	0	0	0	0	0	0	0	0	0	0	0	0	0	0	0
390	380.7464	356.9158	329.1234	292.066	272.7752	253.0845	232.9956	228.4477	217.4192	227.7889	228.5872	227.5455	241.8064	233.6055	229.622	221.1089	206.5396	195.2071	176.351	158.8233	142.0038	120.5716	98.7528	78.4327	60.5953	39.0409	23.3142	7.8882	0	0	0	0	0	0	0	0	0	0	0	0	0	0	0	0	0	0	0	0	0	0	0	0	0
392	433.3428	385.6078	352.9516	312.4686	290.0778	267.7104	250.2575	234.2133	232.6778	228.59	233.1744	239.9925	245.9278	246.7711	238.086	232.9487	221.8721	208.1943	189.1441	169.8022	150.765	129.2988	109.1194	89.1491	67.4095	46.0259	28.2193	14.9209	0	0.3926	0.4613	0	0	0	0	0	0	0	0	0	0	0	0	0	0	0	0	0	0	0	0	0	0
394	446.2571	401.6334	358.5368	322.0051	295.475	284.9183	260.9246	250.561	240.3271	237.5896	243.8523	248.3473	253.6551	256.9527	251.1997	242.7778	240.2367	216.7228	205.3945	180.632	161.2481	141.5273	121.2056	99.7263	78.6589	57.6034	36.8309	22.0403	5.4116	1.1701	0.9166	0	0	0	0	0	0	0	0	0	0	0	0	0	0	0	0	0	0	0	0	0	0
396	448.121	430.9791	378.4831	336.9184	313.6448	292.4164	268.5182	264.029	247.5269	247.8621	251.6068	258.586	265.1049	268.3725	259.4889	254.2973	242.1224	236.1627	220.4548	196.9003	173.6905	153.8329	133.5343	110.3351	87.6496	66.458	44.1118	28.3608	11.5606	1.9404	1.368	0	0	0	0	0	0	0	0	0	0	0	0	0	0	0	0	0	0	0	0	0	0
398	496.2555	442.1046	413.3779	344.6209	333.8936	310.4291	284.6469	268.9092	262.724	260.6799	262.1507	271.6803	277.3738	277.2584	277.566	278.6909	260.0799	250.8038	232.0626	212.6477	186.2998	166.476	145.9694	121.0271	98.4304	77.3365	53.0765	34.1808	20.4884	2.7071	0.9088	0	0	0	0	0	0	0	0	0	0	0	0	0	0	0	0	0	0	0	0	0	0
400	533.1487	492.3088	437.5558	379.8192	343.4645	319.0798	301.9631	285.2757	270.5813	271.0055	274.7601	281.372	288.8772	294.6371	288.1362	289.1205	275.194	259.9345	246.6252	229.9715	198.8264	179.1361	156.7774	131.9999	109.1407	87.7015	62.5203	40.3627	27.4023	9.6954	0.4528	0	0	0	0	0	0	0	0	0	0	0	0	0	0	0	0	0	0	0	0	0	0
402	527.7222	488.7848	434.2745	393.9688	378.9406	340.0656	315.8653	292.0683	285.859	279.5733	283.6724	289.5403	300.064	302.0908	305.7235	301.6011	291.3342	279.8573	261.301	247.201	217.1963	191.3836	167.2251	143.355	119.5744	96.2765	73.3892	51.3752	31.5429	18.6507	0	0.3367	0.3982	0	0	0	0	0	0	0	0	0	0	0	0	0	0	0	0	0	0	0	0
404	568.3981	524.0745	465.1154	423.1423	377.7456	364.7054	330.0039	309.6665	300.3451	294.6664	297.6685	304.8804	314.0543	316.5272	314.1243	314.7551	303.0036	299.0005	277.8727	260.7965	232.2185	203.5019	178.2749	154.5916	129.8991	105.9993	81.9524	58.9925	39.383	24.783	6.7373	1.0048	0.7921	0	0	0	0	0	0	0	0	0	0	0	0	0	0	0	0	0	0	0	0
406	596.0781	522.8568	476.022	433.6804	408.325	371.7998	340.4334	323.2452	309.0097	297.6395	310.0473	309.7825	323.2339	328.2158	327.9759	330.2532	316.4545	314.2922	294.408	274.0258	248.0758	215.8955	189.9174	165.1316	140.154	115.8365	91.3708	67.4204	44.6213	29.2662	13.2277	1.6689	1.1841	0	0	0	0	0	0	0	0	0	0	0	0	0	0	0	0	0	0	0	0
408	628.601	554.4884	486.8862	449.3137	421.5886	388.5657	362.7566	332.1148	320.0375	319.2956	318.4888	327.0136	336.1257	343.2416	341.7122	339.1108	335.8934	326.9858	312.7218	290.3929	265.9423	232.8176	201.8631	175.9321	150.1775	125.8456	102.2716	76.4394	53.9741	36.424	22.3685	2.3329	0.7881	0	0	0	0	0	0	0	0	0	0	0	0	0	0	0	0	0	0	0	0
410	627.1248	596.1142	505.8322	481.5894	440.8569	399.7611	386.4038	347.7352	328.9286	326.5902	328.2687	337.5073	347.7635	353.281	354.4208	353.4043	351.962	343.5442	324.1055	309.6988	281.0142	252.0293	213.7791	186.2522	160.1752	137.8165	112.4844	86.0392	62.2551	42.2883	28.6582	11.3435	0.3934	0	0	0	0	0	0	0	0	0	0	0	0	0	0	0	0	0	0	0	0
412	644.0506	612.6251	533.9802	505.8499	466.4403	415.247	397.8012	364.423	341.8526	338.39	337.3981	348.0734	359.9675	358.1474	372.141	371.8623	364.5937	356.7875	340.2587	324.1493	296.6484	272.005	225.6827	198.3582	174.1512	151.7552	122.6796	98.7066	72.0172	49.137	34.1119	18.7504	0	0.5421	0.6376	0	0	0	0	0	0	0	0	0	0	0	0	0	0	0	0	0	0
414	671.9851	629.0597	557.5807	498.9412	479.0739	434.2924	406.6685	379.7302	364.6289	342.7896	348.7496	359.7855	360.5623	369.849	380.1625	378.8689	374.926	370.2549	357.6824	335.7769	313.0542	285.9386	247.1558	212.4585	188.0967	161.883	132.85	106.1136	79.7927	57.491	39.595	25.4735	8.0203	1.6239	1.2733	0	0	0	0	0	0	0	0	0	0	0	0	0	0	0	0	0	0
416	683.71	633.5345	599.7988	540.4287	512.2097	453.3422	415.3249	383.7438	371.7322	365.9738	356.6658	369.7757	376.6712	389.7468	391.0693	395.9422	394.7372	386.2323	375.2828	354.1679	331.6883	298.5251	264.7141	227.0452	202.4732	172.3781	143.3216	114.4851	86.2658	65.0916	46.7941	30.2753	16.8561	2.7085	1.9113	0	0	0	0	0	0	0	0	0	0	0	0	0	0	0	0	0	0
418	697.8602	648.1052	582.8433	547.3398	516.7204	468.6493	441.0084	405.005	382.2378	370.6735	376.122	376.1232	383.5349	394.6063	404.8332	412.0679	403.919	401.0101	388.3978	370.8634	346.0954	316.7387	280.7114	242.2177	213.5571	183.3118	155.5318	125.9383	97.1283	72.6851	52.5977	37.3611	23.0724	3.8034	1.278	0	0	0	0	0	0	0	0	0	0	0	0	0	0	0	0	0	0
420	749.7955	668.3627	616.8059	561.5638	520.635	487.6522	454.0488	414.0516	402.745	379.8931	381.81	388.1708	398.2868	409.5358	413.3466	421.8048	424.0553	415.7435	408.4607	386.4327	359.5004	337.6929	297.378	257.4924	226.0913	197.059	168.5382	137.4667	109.1347	83.1714	59.8642	39.6293	28.2908	11.921	0.6409	0	0	0	0	0	0	0	0	0	0	0	0	0	0	0	0	0	0
422	753.5707	711.0037	629.9273	588.013	541.4709	514.3592	470.3713	429.5084	402.9587	393.8113	393.1027	397.0976	411.9041	417.6087	430.9961	438.5445	438.9563	430.1744	421.1586	403.4083	376.4024	344.4895	309.4716	276.8125	240.1502	210.95	180.3582	149.1061	117.3685	89.2673	68.6546	48.2956	34.6749	19.1514	0	0.9709	1.1377	0	0	0	0	0	0	0	0	0	0	0	0	0	0	0	0
424	731.7373	729.8715	658.3183	624.9278	569.3932	529.7901	483.6668	441.7016	421.1404	405.0897	405.3013	410.1749	419.7176	428.5823	440.2347	447.7885	449.2091	445.4198	440.0272	415.2465	394.0356	360.6341	327.5489	288.9087	254.3081	223.6166	192.26	160.8264	127.602	99.7203	75.1086	54.2909	39.8522	24.6288	9.0792	2.9224	2.2828	0	0	0	0	0	0	0	0	0	0	0	0	0	0	0	0
426	766.9141	728.3816	689.7514	627.441	576.7691	542.9484	494.3395	459.2316	434.3417	423.0107	406.3824	417.5228	430.1502	437.3607	449.5277	460.4038	460.0584	457.1532	448.1374	431.7931	405.198	375.2321	340.5455	307.1679	269.0018	236.0889	204.4728	171.8189	138.129	110.4642	83.7078	62.2491	43.1601	30.7913	15.6858	4.8945	3.4409	0.4079	0	0	0	0	0	0	0	0	0	0	0	0	0	0	0
428	761.4563	757.5888	707.5082	636.3751	610.1376	560.8438	510.0007	466.8944	444.7527	427.6038	431.8312	422.9641	428.3333	452.071	459.7699	469.3684	473.4323	476.5852	466.3892	445.0396	422.6179	391.992	352.9698	320.9487	285.0785	249.0819	217.1528	181.0188	148.9983	119.4867	93.9554	68.7523	50.9591	38.2071	21.2606	6.8965	3.2618	0.821	0	0	0	0	0	0	0	0	0	0	0	0	0	0	0
430	825.7215	749.8467	713.7954	666.9837	601.9861	568.8811	519.7116	487.9974	466.2885	435.3753	430.0803	440.8553	443.7758	451.3833	475.5608	480.9161	491.6468	487.0805	481.5285	464.1673	439.1057	404.0922	369.3252	333.5453	302.7685	262.2323	227.7826	190.3274	160.0026	128.8333	101.9698	77.928	58.6122	42.3506	28.1827	11.9518	3.0801	1.2393	0	0	0	0	0	0	0	0	0	0	0	0	0	0	0
432	821.1159	801.6061	738.8188	671.0349	634.164	583.7508	536.9749	504.7821	470.9604	451.8445	446.431	439.3086	456.3918	460.2994	482.949	492.509	497.0101	500.0944	496.7296	477.6749	449.6681	418.4633	384.3568	348.7314	313.1939	275.237	237.1665	201.4354	170.4434	138.1425	108.8689	85.5963	65.0133	47.3948	36.2805	20.0703	2.8928	2.6394	1.6283	0	0	0	0	0	0	0	0	0	0	0	0	0	0
434	848.4481	809.4408	767.0557	677.9106	646.7515	595.0843	558.2836	515.3167	477.6582	459.6993	461.2834	458.9124	463.7998	481.2898	487.1274	496.6091	506.1697	516.8587	505.9082	495.6412	470.9773	433.5924	400.0197	359.2448	327.236	289.8127	246.6415	212.6568	179.9644	147.5472	117.9304	93.0292	71.4468	54.3285	40.7067	26.7354	11.1553	5.0377	3.2738	0	0	0	0	0	0	0	0	0	0	0	0	0	0
436	884.1098	815.2434	754.5564	701.808	674.802	617.3222	580.6057	515.7793	491.8269	458.9188	466.6428	462.1388	468.4307	480.4237	496.6637	513.2373	522.8974	528.1428	516.4155	503.8449	480.9657	446.3348	409.9276	374.1522	340.01	301.7294	256.5379	223.2458	189.8244	157.2492	124.0452	100.2948	81.2646	60.0346	44.2208	32.8991	18.056	7.4705	4.9426	0.762	0	0	0	0	0	0	0	0	0	0	0	0	0
438	851.3289	830.7197	785.1181	733.6368	670.2271	643.196	570.3942	535.2572	517.783	480.7677	469.8158	477.0723	478.3256	490.1952	499.5692	522.5011	530.6285	536.5321	531.6381	520.4166	490.862	462.4732	421.2183	386.8002	355.31	317.0531	266.8882	233.4697	199.5212	166.4733	133.5001	108.7366	88.5933	69.4244	50.4232	36.832	23.0727	9.9472	5.1235	1.5358	0	0	0	0	0	0	0	0	0	0	0	0	0
440	890.3634	869.4613	777.1928	741.093	693.2618	642.7873	591.2478	547.6786	516.2751	489.0621	471.1701	485.9187	489.1032	499.8608	510.2773	529.4039	539.3474	545.9007	542.6277	537.5845	507.3278	474.3656	439.0578	399.3327	365.1915	328.8139	286.9743	243.0195	208.8094	175.0443	143.0907	116.2025	97.183	75.1155	56.4133	42.5785	28.9279	15.2982	5.3066	2.3213	0	0	0	0	0	0	0	0	0	0	0	0	0
442	932.6903	842.221	805.8412	736.8508	719.4453	641.7109	595.0445	563.4893	526.4722	506.3298	483.9768	485.4862	495.7	504.5306	519.4928	538.3999	550.2926	557.4156	557.6319	536.8232	517.3237	486.198	444.8562	409.8015	377.0554	340.8313	298.6188	252.498	218.0523	182.5636	152.6989	123.8681	103.445	83.4228	64.6944	48.2499	35.3822	22.4315	5.4876	3.779	1.6685	0	0	0	0	0	0	0	0	0	0	0	0
444	892.8463	873.2999	808.0877	768.1228	712.0996	656.5429	610.3989	563.284	536.9936	499.9039	499.1008	495.2971	506.9262	515.0012	526.179	549.9958	562.6585	562.2845	561.2445	555.0395	528.6421	502.4862	463.3551	420.8194	386.655	350.6624	312.6909	262.0881	226.3793	190.1721	162.43	131.9134	110.2442	91.3979	70.4596	53.6795	40.7985	27.4566	14.215	5.9237	3.3597	0	0	0	0	0	0	0	0	0	0	0	0
446	917.6798	908.5715	814.8381	772.8217	724.3568	686.5532	627.4188	584.2885	547.5416	516.2409	504.2175	498.1784	501.9441	514.4966	532.6986	551.2686	572.774	576.2926	574.6754	563.9556	542.1885	503.552	469.0901	430.3987	396.8361	361.7251	326.6374	271.9666	234.4377	200.2985	170.9188	140.1504	120.6933	97.7923	78.4052	58.4243	46.6347	32.1173	19.8766	8.1023	5.0769	0.9697	0	0	0	0	0	0	0	0	0	0	0
448	930.802	866.8569	815.6241	792.3221	740.4883	680.2568	645.7305	582.8615	551.6654	526.4257	514.7671	506.383	515.3459	520.5151	540.6642	559.0766	571.5524	578.1088	584.1337	569.4522	553.9813	517.9583	479.6133	447.7317	408.0451	375.4369	335.4908	281.3083	242.7499	210.6947	176.6558	148.5932	125.1978	105.5358	85.932	66.7523	51.6557	39.3652	25.108	10.319	5.6971	1.955	0	0	0	0	0	0	0	0	0	0	0
450	952.9108	922.6661	850.0047	789.1302	729.9969	707.4269	649.0243	591.4038	549.4489	527.5816	518.4627	511.0788	518.6922	524.1861	540.7154	560.5382	580.8004	591.6373	592.052	577.2196	558.7765	530.2099	485.1613	447.3419	419.1723	378.8111	342.6927	296.478	251.1683	218.2478	182.4638	157.1563	132.931	113.7609	92.9697	73.0704	58.8286	43.3579	31.7537	17.5341	6.3265	2.9556	0	0	0	0	0	0	0	0	0	0	0
452	947.0641	897.1192	841.3035	827.2796	764.0306	695.9342	639.8421	613.887	572.5382	539.5785	517.8207	524.8177	523.4398	527.7412	543.7913	564.1627	580.4921	599.2249	595.7886	583.1247	568.2087	532.407	500.2212	456.0861	423.3666	394.2419	353.6556	305.9125	259.8131	224.4927	191.4478	165.6736	140.8387	120.9335	98.6401	80.7879	63.1241	48.4633	36.1417	22.6246	6.9683	4.6503	1.9594	0	0	0	0	0	0	0	0	0	0
454	973.2406	901.6318	866.0563	806.3672	766.8422	716.0113	665.9916	602.7635	581.2151	542.904	530.0885	524.8171	528.4998	533.2006	554.4934	569.1562	580.9073	595.3054	593.747	595.4738	574.5741	543.0205	499.265	465.2811	431.2588	399.0766	354.8648	313.5076	268.8602	230.8129	200.5599	173.8232	148.8624	127.1743	106.4556	87.8223	68.6267	53.8028	43.3215	29.298	16.6012	7.0549	3.9512	0	0	0	0	0	0	0	0	0	0
456	930.0423	897.2929	847.3714	845.1799	759.8319	719.1461	679.624	620.5068	588.9372	547.3544	528.7895	534.0282	532.952	534.8769	546.0024	567.9302	588.5411	602.0725	607.3134	598.6691	580.2046	552.854	509.6662	470.745	440.8286	404.1251	369.5043	322.8538	276.3234	237.5758	209.6275	182.3686	157.2445	130.2811	113.5749	92.2784	75.0418	58.5981	45.1734	32.5261	20.1317	9.5131	5.9847	0.9762	0	0	0	0	0	0	0	0	0
458	950.5262	896.3155	866.9171	810.9998	789.001	732.9009	670.6511	626.799	588.2714	559.5938	537.1368	531.822	535.2587	536.3139	550.5323	573.6515	590.2257	608.6505	607.9161	599.9977	578.6942	554.1228	517.7315	481.5156	444.7266	413.9258	371.1179	331.5142	284.8437	244.8029	217.9278	189.3601	163.0098	136.2584	118.5601	99.2696	80.9201	64.2421	50.1279	37.9808	25.799	12.0357	6.3133	1.9741	0	0	0	0	0	0	0	0	0
460	948.6694	924.3067	857.1719	835.1192	778.4884	733.1257	695.8532	643.0919	598.5057	563.333	550.3499	535.1142	536.3685	536.9901	554.5649	577.2855	596.2605	606.0115	611.2553	602.953	586.2654	559.879	522.5364	483.5184	446.8933	419.391	379.1578	336.9918	292.866	253.1894	223.352	194.4598	167.1775	142.3378	125.928	105.2358	87.4743	70.7345	54.3781	42.6606	29.7891	16.6549	6.6477	2.9939	0	0	0	0	0	0	0	0	0
462	980.2245	943.4424	865.9595	839.9726	786.0234	731.7132	696.0114	645.9842	599.6281	565.8012	545.7963	544.299	535.5462	547.6328	559.4257	579.8004	596.9129	611.8733	613.1623	604.6302	589.1666	563.3645	524.0707	486.5039	454.2237	419.8998	388.3926	346.2247	302.8941	259.8843	229.0958	199.8469	170.2212	148.682	131.0379	110.5245	92.3315	74.669	58.8442	47.1306	35.473	22.4187	6.9955	4.514	1.7478	0	0	0	0	0	0	0	0
464	976.5248	870.1981	877.9184	836.759	794.2366	751.8475	693.406	647.5123	602.3485	574.4675	561.7262	542.2997	542.1049	544.1336	556.7355	579.0573	590.6199	607.9895	616.2247	605.3171	589.0768	566.4509	528.1825	494.2518	458.2156	433.7003	389.8072	353.6449	306.0495	267.9916	234.9141	203.9425	173.2899	155.1387	135.2626	118.1845	95.8476	80.4915	63.2333	51.9166	38.8616	27.4711	16.4115	6.5493	3.5373	0	0	0	0	0	0	0	0
466	960.8459	911.0329	885.2061	814.6038	802.2268	764.494	709.464	665.2124	613.6732	573.7445	556.4118	554.0745	542.2796	548.5142	553.606	569.2685	596.1102	609.2958	616.9736	611.1477	595.3623	564.9752	530.6667	501.5065	463.8918	437.1802	398.2305	356.5297	308.5022	274.8053	240.881	207.4521	180.1137	160.3985	139.5937	124.1643	104.3232	86.2996	69.3737	54.0963	42.3357	32.1659	19.0328	8.6339	5.3701	1.3841	0	0	0	0	0	0	0
468	944.8191	932.3339	880.6361	844.6445	806.0016	754.8266	709.8163	651.8095	610.0603	576.122	555.1212	553.6938	546.2726	545.3794	557.72	576.5965	594.4808	607.6148	609.5592	610.0917	590.2422	567.8426	530.1612	494.6651	466.7714	435.5102	399.1257	357.1078	313.5926	283.4478	244.9327	211.0515	187.11	163.0388	144.034	126.6793	105.8291	90.9599	74.96	58.0265	47.2965	35.6462	24.727	10.7697	6.8696	2.802	0	0	0	0	0	0	0
470	928.1344	905.3133	865.5262	839.7125	802.2437	752.5529	696.8455	660.1782	617.8632	581.2189	554.9674	547.1327	545.4142	546.139	558.638	569.751	590.9256	603.2862	609.0426	607.5532	588.2784	569.1851	536.2994	494.4162	467.578	439.8725	402.7727	361.3859	316.2413	287.1753	251.7904	214.677	191.447	165.6957	148.5414	130.1736	111.6477	94.0488	77.839	63.3986	50.1352	39.2225	30.6762	17.5923	8.4037	4.2538	0	0	0	0	0	0	0
472	913.0205	921.1177	880.0226	846.8002	811.0032	758.8204	708.3823	651.5419	614.8796	585.1102	562.6947	547.9442	549.0786	546.2645	546.2416	570.0218	588.0102	598.3059	602.5971	604.0771	587.2002	561.1809	529.5278	500.4615	466.9524	441.2005	401.6662	363.1222	323.524	289.2705	254.6157	218.8493	194.892	170.8627	153.2046	134.0329	117.478	100.487	81.68	67.2942	52.2721	41.407	31.9844	22.1229	9.9961	6.1444	2.1677	0	0	0	0	0	0
474	897.1122	884.578	871.8241	862.8535	799.8907	760.9824	700.9726	655.0287	624.239	583.6395	562.24	550.5587	543.3743	543.3939	545.4357	569.3169	573.8025	588.0621	595.7973	595.0138	581.1915	558.5629	523.5408	493.5984	462.9713	442.7205	408.3577	362.4289	329.2935	291.8331	258.5674	225.2192	198.3572	176.1099	157.382	137.9493	122.6728	102.0686	86.8042	69.8263	55.1588	46.3127	36.4766	25.8433	15.7867	8.4838	4.3968	0	0	0	0	0	0
476	879.586	871.027	855.7174	845.7502	796.7968	751.7278	693.5082	656.5481	626.3032	581.1463	564.4088	547.735	542.8335	535.6343	540.6946	558.6223	569.977	587.5165	592.9762	593.7254	579.4516	557.1219	529.6685	497.4663	468.2668	440.265	404.544	369.0821	331.3373	294.4998	258.36	227.1511	201.6578	180.7095	161.4686	141.793	121.5113	107.8857	90.569	74.879	59.0864	48.1272	41.356	29.3043	20.9035	10.8762	6.6812	1.5181	0	0	0	0	0
478	860.5285	856.0469	854.0596	822.3308	796.9678	754.057	700.6162	645.4031	628.2033	588.3317	562.3177	553.3397	532.9001	531.739	541.9104	555.6869	565.3289	577.7713	583.465	588.9954	569.9944	554.8742	525.111	491.6163	466.4039	433.7737	407.6254	368.6253	328.9279	293.8246	266.8255	233.792	204.7918	184.455	164.5277	144.1536	124.928	113.7864	94.3797	80.1385	63.7712	51.6795	41.6646	32.9667	23.611	13.3155	8.0738	3.0724	0	0	0	0	0
480	840.7965	840.4803	841.1009	823.4828	778.8218	739.2	700.3591	648.8761	621.5956	590.2213	557.2861	541.9225	539.7146	534.9755	534.6224	555.3976	559.0876	582.4515	583.3916	580.8038	562.8368	546.7587	514.1979	488.3816	461.4829	438.0435	404.2321	365.9892	331.5117	297.2836	266.9354	237.6629	209.1488	186.8347	166.6716	146.1121	128.3916	113.6223	99.2027	81.2196	66.4467	55.0291	47.5832	37.5018	28.4829	17.4198	9.4974	4.663	0	0	0	0	0
482	818.6539	822.5809	841.3338	801.3042	778.2302	742.9027	692.0746	653.7739	622.1065	589.9099	550.6795	541.0199	534.1108	529.9491	534.9643	541.0633	555.6818	568.8336	576.8258	575.2905	567.8961	541.3881	514.0804	487.6431	462.8733	435.0602	408.0742	368.8488	329.1245	298.0513	268.5445	238.0502	213.7852	188.8273	168.4707	147.8831	131.6289	116.9531	101.9822	85.8257	69.2051	58.4508	47.1576	40.0179	31.8202	21.4022	10.9294	6.494	2.077	0	0	0	0
484	795.9729	804.2111	806.7552	798.6125	772.9454	748.7384	697.4111	646.5727	613.0809	581.3847	560.7238	547.0549	528.6023	523.1377	530.5569	543.5807	555.3217	560.0738	564.5621	560.7649	554.1644	540.8116	509.2816	480.1915	457.7986	434.4843	402.4515	369.6592	332.6114	301.3341	271.4624	239.9622	218.4905	190.824	170.3867	149.6613	134.9049	118.5327	104.7883	89.7951	75.2981	61.1226	50.8349	43.4162	33.9388	25.0687	15.8509	8.5781	4.1935	0	0	0	0
486	772.6015	785.2161	793.0148	791.8829	775.4061	742.7429	692.5112	650.5597	615.5833	570.7948	557.5992	537.6112	530.2567	515.7151	528.2701	535.218	538.6221	552.8796	563.5818	559.9181	549.3809	528.0168	507.3525	476.4017	458.6611	434.2581	403.2639	363.7439	332.0957	304.4241	270.9133	242.9341	219.4534	192.7866	172.3319	153.0787	137.1916	120.0979	105.968	90.2193	78.6773	64.8984	53.5904	45.1091	36.1122	28.5283	18.6104	10.6982	6.3484	1.1548	0	0	0
488	748.561	765.6137	778.7463	787.0659	750.6272	739.1784	701.6476	644.9131	605.7255	576.4381	557.6978	536.3546	522.113	514.9141	517.8936	531.432	536.5227	548.2897	554.3521	551.7406	545.6719	524.1838	507.338	476.6124	450.8764	428.4558	401.2196	366.5613	334.9168	302.3284	271.9743	241.9985	222.763	199.179	174.2501	156.5033	137.4507	121.6483	109.1763	95.6302	79.7139	65.4756	55.0538	46.7423	39.8814	30.0625	21.9917	12.8533	6.9808	2.3302	0	0	0
490	724.015	745.5679	764.1141	767.9596	766.3574	720.1977	690.9361	650.7718	612.6792	575.3044	560.8652	534.7787	525.6521	514.5021	511.8359	527.8489	531.6813	540.8301	547.5398	544.1956	536.9555	523.6859	488.4974	465.7316	446.2481	424.5589	397.3206	367.1491	327.644	301.0709	274.9969	244.588	222.9277	201.4388	176.1753	157.9333	137.6929	123.2074	108.2287	95.1576	82.3808	68.5854	58.2037	47.8351	42.0035	33.8447	25.2078	17.7632	7.6233	3.5262	0	0	0
492	699.6445	727.4835	749.8477	766.6218	751.2881	718.9306	688.7777	646.3907	600.7219	571.4987	542.2108	533.8241	520.9394	504.981	505.0617	510.9052	526.6995	530.2579	538.0724	540.1635	530.3943	511.7008	485.1907	461.4317	445.2583	425.5195	397.8081	365.174	329.286	299.9508	273.1493	247.5941	225.492	201.9194	178.2773	158.4904	139.5183	124.8933	110.1254	99.8668	84.4876	71.7878	61.9174	48.9627	44.9999	35.1628	29.0046	20.8124	8.2839	5.2559	1.977	0	0
494	674.7119	710.6496	735.1769	746.0354	735.9847	712.1958	673.5268	643.4055	604.593	575.6907	544.7072	520.0802	511.1236	505.5174	497.747	502.0845	518.39	532.3889	525.8762	530.286	518.4661	506.4675	483.7144	459.0812	438.6384	421.8444	397.7993	362.2969	327.8061	299.4876	272.5185	243.8866	224.4835	205.2648	181.9188	159.0286	141.3533	126.2031	112.0386	99.4996	87.0446	75.7485	64.7854	52.173	44.6814	38.8541	31.0497	22.5161	15.7103	7.5319	3.9922	0	0
496	649.0199	693.1671	702.7991	727.531	732.4908	693.1005	656.1182	626.969	603.7827	554.3947	536.9095	522.6913	506.9933	489.747	490.5252	499.072	509.8475	519.173	513.6556	527.7301	511.8454	497.2426	475.0683	456.1808	438.8968	417.4805	388.1248	355.8852	326.546	299.4095	273.9716	243.9041	226.2597	202.0234	184.3469	159.4996	142.9605	127.2818	113.9337	100.7161	88.8217	77.1078	66.8333	54.8865	45.7167	39.8227	32.7952	26.6737	17.1427	9.8475	6.0438	1.3286	0
498	622.6015	646.9634	683.0631	708.3697	729.3002	705.9533	673.9804	627.3479	598.0633	556.4805	534.1775	516.0435	501.704	486.596	488.8265	491.1814	495.696	508.233	512.8866	508.9016	500.1096	491.3419	464.7905	451.7204	431.9858	410.1262	389.8023	353.8191	323.449	295.2825	275.6676	243.9339	227.8761	203.7854	183.6696	159.9043	144.1389	128.3206	115.81	101.0599	93.2227	77.3606	68.365	57.2903	47.392	42.6704	35.26	27.9941	19.9416	12.2008	7.1907	2.6807	0
500	561.8634	624.1916	662.8999	688.7857	698.9758	677.6472	644.22	623.6638	582.4495	549.638	525.7934	507.4715	496.4934	480.4128	468.9607	479.6095	483.2314	498.5411	501.478	506.3119	494.9511	481.8355	456.2715	435.4214	424.6536	403.5843	385.8296	352.3582	318.8322	294.7626	269.6309	242.1619	225.6908	208.0564	186.9839	165.8114	145.3158	130.3217	116.865	101.3942	93.1928	80.6319	70.4594	61.2695	49.9231	42.4728	37.3801	30.77	23.4266	17.7592	8.3567	4.0563	0
502	568.5122	600.7809	641.2044	668.5768	690.3428	686.1567	654.067	609.9742	578.2682	545.8912	515.626	511.629	485.4529	482.3011	464.9612	469.2933	485.7255	483.1509	491.7573	492.92	483.8098	470.6676	453.4906	430.6943	414.928	398.2954	373.7683	347.9959	315.2691	292.9649	268.8347	244.4108	223.6791	203.7423	187.3724	165.6629	146.4477	132.2985	116.198	101.6888	92.1933	83.0462	73.8378	61.7077	51.6867	43.991	39.0873	31.2408	24.8934	18.8597	9.5391	6.0428	2.9299
504	571.4033	576.9331	618.1709	647.9647	671.8197	654.2176	624.8334	593.3076	566.0596	542.4295	517.8757	493.2941	482.1921	471.7606	457.8025	467.1937	470.1735	473.7776	479.5306	480.8567	466.7567	460.4493	442.3125	425.0579	409.7883	393.5931	369.8393	343.7675	312.4114	288.9328	265.5001	238.2312	221.1182	199.8225	185.0781	167.7512	147.5782	132.5897	115.5038	101.9742	88.455	84.1877	74.8979	64.9211	54.759	43.9537	40.5275	33.6308	27.6917	21.7687	14.0306	8.6559	5.909
506	572.3562	553.3105	595.4179	635.6794	650.5465	651.6903	629.7013	577.9332	566.0979	532.4763	503.0826	492.0475	467.8188	449.5822	457.3263	451.2296	465.431	468.3658	471.9638	467.9303	469.1516	451.4176	434.9565	415.2799	399.2329	382.0151	367.1454	338.3361	307.1735	288.0222	261.8499	238.9655	219.1464	199.4102	185.1947	166.7618	148.8824	132.166	116.0241	102.3704	89.775	86.2345	74.8742	67.0564	56.5975	45.3325	40.9982	36.9154	29.552	24.1922	18.1679	11.3248	8.9476
508	472.858	529.8099	590.3195	611.0852	629.5342	633.2237	609.3338	575.8194	546.3585	519.0157	499.5598	482.205	465.1902	446.4553	448.278	445.3456	455.5089	459.5205	454.5932	463.0604	454.7405	441.3425	422.7362	405.3363	390.5039	381.897	357.6473	332.5989	304.0414	282.5661	258.815	235.9272	214.027	201.6781	185.5894	165.7874	148.7349	131.8648	116.6696	102.7816	91.21	84.9901	76.2946	67.159	58.3159	47.8412	39.6938	38.5373	32.7928	26.4002	20.3014	14.0588	12.0565
510	465.4983	532.4454	562.2449	585.8831	607.9734	635.457	606.2735	572.1652	550.584	504.2538	489.1794	475.2806	456.6886	441.9413	434.0566	433.8233	442.5082	444.734	447.2689	443.7712	442.2932	433.9077	411.9062	397.6718	386.7152	371.2035	350.1877	324.2874	299.4208	276.4078	254.5185	235.5075	214.2557	198.5057	182.8592	168.6585	149.0432	131.5285	117.2555	103.1317	92.6554	84.0564	77.5767	68.2329	60.4318	49.7409	39.1505	38.8077	33.0166	28.3593	21.9816	16.4345	15.2285
512	457.8301	493.1313	533.4545	560.6063	585.7911	603.1055	592.7037	555.7662	531.232	497.7889	483.1281	467.7861	447.7824	437.9842	422.9411	427.6834	427.472	428.0342	437.2008	431.4367	431.1927	417.5917	407.43	390.5928	377.5499	365.8256	346.7813	324.0822	296.5853	271.0588	251.1688	228.6751	216.0851	195.8563	179.888	163.762	145.3756	131.1399	117.717	103.4542	94.0991	83.9705	79.1285	69.9911	62.9115	52.6522	40.9145	37.9129	34.9097	29.6223	22.1897	18.5037	18.4615
514	449.9159	482.731	504.0287	535.353	563.0725	595.391	570.0634	548.3355	514.6253	496.0477	468.1432	454.0969	433.5142	425.5011	423.1102	417.245	420.774	424.6038	421.0155	422.076	424.8323	410.2663	397.2542	376.4549	364.5515	355.9513	336.3096	318.3635	288.4141	267.9883	245.0956	224.3225	211.0395	192.0377	178.915	162.4062	146.1373	131.9288	118.1638	105.0073	94.6358	83.8657	80.2062	71.6765	63.0276	54.6039	43.5851	35.1213	33.9718	31.1087	25.3161	21.1028	21.0547
516	442.0992	517.9985	474.3397	509.926	564.0954	572.5268	561.8818	532.017	506.113	483.2863	460.4866	445.9559	434.5237	412.2013	404.2154	408.7375	408.4665	413.5293	412.9412	416.1324	413.0031	405.9634	389.6481	370.6139	364.1967	347.8087	330.951	307.6775	287.2565	266.2818	242.8902	225.0402	207.8332	189.8963	175.1568	162.0921	146.2881	133.252	118.6869	106.6523	93.3832	83.8062	77.3922	71.567	63.6736	56.1056	46.6091	35.2886	34.5259	32.139	27.4623	22.8807	22.8286
518	434.3505	425.8291	444.3089	521.1784	537.6564	549.5013	541.4337	525.162	505.5651	475.9918	456.0266	438.7687	423.9611	404.3468	397.1755	402.2808	398.6884	404.9768	405.3252	407.9119	399.5975	388.1332	378.9963	357.4443	356.5184	338.6731	323.7079	302.7354	280.0571	255.7716	238.4334	221.188	202.8456	191.0642	174.3007	158.3843	148.6055	130.7384	119.2845	106.4986	92.1525	83.7898	76.0495	72.4366	65.0066	56.6489	49.2286	36.9145	32.0423	32.7375	28.7763	22.9704	22.9181
520	426.3177	368.7248	467.19	491.2024	510.5269	525.8477	545.8667	511.2968	488.3664	471.4368	447.2497	430.7104	415.0734	392.1831	390.7376	385.8279	388.7103	391.2753	392.35	385.6247	387.6553	382.8858	369.1973	349.2458	349.9367	334.0867	319.0878	292.8549	272.1392	255.8244	235.7654	215.1236	199.0622	188.3938	170.4598	156.1191	144.208	133.3178	119.8653	105.3577	92.2063	83.7516	75.5508	72.6008	63.773	55.811	50.4651	36.9534	29.5166	33.7978	30.4634	23.6687	23.6148
522	417.9742	365.3018	452.7283	460.4618	483.1284	501.5354	526.0575	493.6505	477.6822	450.3612	430.9717	426.7706	402.7356	390.1243	381.6157	377.9057	374.8473	378.9841	385.1098	382.6616	374.819	367.8074	361.3867	344.4837	337.3512	326.0664	311.9173	288.0992	265.5946	251.9667	228.7947	211.6577	194.244	184.7657	169.4316	155.7181	141.8583	127.8884	115.7854	104.1581	92.2323	82.8692	75.0173	71.3718	65.517	57.9142	51.5556	40.9712	27.7401	33.3807	30.6808	26.8149	26.7538
524	409.3491	361.7149	465.0945	428.9964	455.5136	476.6053	500.0732	490.5319	464.2582	451.7158	417.6258	419.2805	389.5622	374.9506	368.4086	372.787	370.2055	366.8242	378.9009	373.5519	372.4881	362.0373	342.8716	338.6627	328.2082	318.0511	302.7427	284.3302	260.6257	241.8493	227.2957	207.6174	196.1276	181.8147	164.0237	154.2089	141.0953	128.8192	113.7001	102.907	91.8226	81.5345	74.4539	68.5023	64.9479	57.3384	53.0715	43.5724	29.22	28.4105	31.0193	26.953	26.8915
526	400.7161	358.2079	475.1984	397.0815	427.5324	464.8703	478.7966	476.0198	460.1759	438.2409	406.3037	405.6992	384.4082	367.5323	361.969	362.1205	363.7167	363.9831	362.6141	363.3366	359.3275	353.0091	335.1402	324.8017	317.9702	312.8822	293.3067	277.0798	258.7596	240.0784	221.4875	203.1453	191.9328	176.2644	163.0242	149.6045	137.7295	123.5173	113.2788	101.6729	90.6066	80.2056	73.9104	67.7581	65.0799	58.9578	50.6198	45.9335	30.4681	25.6056	30.7426	27.2462	27.184
528	392.0481	354.7654	447.2415	364.6459	432.0926	444.3404	457.2454	467.7517	457.512	428.8115	402.6871	388.5942	382.8632	362.8977	354.3275	352.8297	354.8133	351.1374	348.1368	356.3254	351.3915	343.0842	330.2823	322.001	310.4244	301.8008	289.9549	270.1424	253.1188	233.7351	214.7653	199.904	186.1458	174.4612	162.6991	147.1179	136.8795	124.6039	112.7266	99.1171	89.3985	79.7628	73.0924	67.0239	65.3515	57.0712	52.653	46.1275	34.0746	22.5106	27.6271	28.7654	28.6999
530	383.0634	351.1382	342.3857	388.2008	408.656	423.2177	435.0763	454.6829	432.9743	417.8479	400.7859	383.6365	369.7855	349.1578	348.9488	342.2791	341.1761	346.0494	344.8192	347.3231	338.7568	331.6328	320.7125	312.4552	305.1005	297.918	284.1506	264.9975	246.1936	228.9311	212.0656	193.8559	182.9625	173.0505	156.7829	145.4228	133.4642	123.2922	110.7869	99.8121	88.1359	79.2865	71.644	66.2528	62.5	57.0841	51.69	46.4025	36.7681	21.7432	23.4895	29.3998	29.3328
532	373.819	347.379	240.9538	378.6378	384.6435	400.1466	412.3545	435.6515	428.6668	408.1026	395.7559	385.6149	361.7302	347.7653	335.7646	331.0201	329.8153	332.8555	337.7611	335.9664	326.9902	325.1309	308.6562	303.7111	298.2663	292.0857	276.1857	260.8503	239.35	223.5429	205.9968	192.8942	180.928	167.3327	154.8495	143.4311	131.3936	119.5486	109.4304	99.9388	86.8314	78.1946	70.1516	65.4547	60.5837	55.8114	52.6256	46.4955	39.7168	23.9068	20.5801	26.9284	26.8671
534	364.255	343.4331	262.1369	379.5042	359.9916	375.0193	389.0119	427.1965	416.0653	399.5726	381.2589	371.3818	354.5507	330.9419	329.5185	323.7169	320.5531	324.0288	321.7463	327.2433	325.3236	318.4749	303.8479	294.6055	290.4987	281.2653	269.5301	255.0103	233.5027	218.5224	203.0329	187.8544	174.9547	164.8021	150.3704	140.138	130.384	118.321	109.6852	98.9057	85.4716	76.7546	69.3881	64.6192	59.8008	55.8204	51.1931	47.2671	40.5587	29.1464	16.5544	25.0068	24.9499
536	354.5552	339.4761	283.9235	363.8147	334.8767	349.4234	382.9539	407.9263	403.0759	377.2355	370.0568	358.0242	338.0369	327.6252	322.5895	313.8987	317.4626	317.7972	322.8926	318.8448	310.2718	310.4862	297.6454	287.9549	282.8137	276.1127	260.4802	247.3891	233.3941	215.1461	198.9512	181.1928	171.797	159.3733	147.5831	138.2157	126.6668	119.1884	109.4349	97.08	84.1559	75.2984	68.6229	63.7292	59.0133	56.6955	52.4418	47.391	39.686	31.7088	15.7713	20.9833	20.9356
538	344.6983	294.3237	306.345	368.6736	309.2559	345.7718	365.544	388.2929	393.3876	379.0126	353.1003	349.5831	333.603	325.1913	313.094	308.066	304.5097	316.2061	305.0993	308.3903	304.181	295.184	288.8774	283.4286	275.5085	270.9941	258.2211	238.4213	225.4326	207.5518	196.5972	178.8325	167.0096	157.256	144.4022	137.5125	126.1645	113.4881	106.8194	94.4987	84.0059	73.8224	67.8284	62.8055	58.2191	53.6264	51.4425	48.177	41.1163	33.7239	17.0123	16.5334	16.4958
540	334.4943	318.7886	329.2668	337.1975	308.1386	326.2933	347.6062	368.0747	394.2449	362.0155	347.8627	342.7821	324.1205	316.5136	305.473	297.9781	302.4178	298.6634	301.8118	292.5021	297.1725	293.1401	283.1577	271.3039	267.1611	259.2876	249.8756	234.3235	220.6123	202.4384	190.1651	173.8394	162.7252	152.3858	140.483	133.752	120.9794	111.9201	104.404	94.2235	81.1214	72.2868	66.9423	61.8394	57.3871	52.6248	50.3375	46.7164	42.2962	34.7876	22.1407	10.4971	10.4732
542	324.7063	313.1583	295.802	280.3	316.4977	306.9812	328.306	348.0925	381.2245	354.3477	345.8685	338.1904	320.4258	304.4003	298.2484	292.0211	293.8994	289.9928	289.181	290.9061	289.9068	283.8439	274.2781	267.6371	258.629	253.2828	246.9296	230.4753	213.7097	197.7121	186.9195	170.7611	162.424	150.6329	139.1228	126.9925	121.7639	111.9575	103.5188	92.8199	83.2392	72.4886	66.1682	61.1808	56.5758	51.703	48.8709	47.8183	40.569	36.0512	28.746	10.2502	10.2269
544	407.9541	320.6974	238.5528	168.7628	333.9676	287.004	306.6993	327.4101	362.1706	354.6867	334.0706	325.5222	314.8235	300.3817	291.0388	287.8659	282.7587	287.9651	283.9351	285.3891	283.0324	278.7962	270.5489	258.9494	259.1289	254.0737	240.3305	226.6543	211.5553	194.281	184.8299	168.5333	157.4331	146.9199	137.0546	127.1494	117.115	110.1693	100.4972	91.0299	82.8198	72.9203	65.3439	60.4774	55.5688	50.7328	47.5994	44.4557	39.9644	37.3587	30.7829	11.7587	11.7319
546	374.7421	302.104	232.8312	197.6224	319.5154	266.2176	284.2229	324.9398	342.5477	346.5448	324.0075	317.989	296.415	288.8528	281.2424	285.0878	275.1512	280.2703	275.7793	271.9711	272.0285	265.9158	257.3785	252.2749	246.4955	239.2795	232.7425	219.7332	206.0478	190.7554	179.7379	166.3385	153.2851	143.9822	135.9731	124.169	116.6469	107.4204	99.0363	90.4559	80.857	72.8806	64.4343	59.5476	54.4806	49.687	45.1939	43.6036	39.2779	36.4853	31.8508	17.3348	17.2953
548	446.1249	309.3785	238.9084	227.1286	307.2141	244.6659	298.902	303.9353	322.1165	328.957	326.9465	317.5333	305.7807	282.6819	273.3837	271.4596	272.1018	270.3473	268.1857	265.9126	261.4177	264.0316	252.7285	246.8749	243.1339	235.8868	225.6939	213.4386	198.2261	184.1855	173.1111	160.977	150.7409	138.4916	128.5599	121.6536	115.1276	104.1898	94.7916	87.2219	79.8662	71.0898	63.4422	58.4637	53.4361	48.5685	44.383	44.8927	40.8001	36.0704	30.4492	23.4173	23.364
550	426.16	316.7417	258.3614	257.3797	296.2837	279.0496	276.5674	282.3215	301.0833	327.5181	312.8156	291.466	288.2784	272.2857	268.1367	261.8651	260.1487	267.4594	264.227	267.6257	253.259	252.4324	244.3222	236.2359	236.566	225.2532	217.921	206.4247	193.6501	179.2485	170.1677	153.024	147.8421	137.3907	127.4531	119.9486	109.8981	101.9112	93.1582	87.0884	78.1452	72.3507	64.5502	57.3329	52.3474	47.3725	43.5368	40.8923	39.1046	37.6246	30.9318	26.2322	26.1725
552	399.599	325.1136	292.5714	289.198	285.6382	264.4516	254.3305	261.1888	280.243	303.2414	295.7727	290.0429	272.7194	266.6306	258.8818	255.1616	253.0652	258.4812	251.7068	243.715	250.6818	244.1903	235.9461	230.4014	230.2656	225.4245	213.5547	201.9488	188.131	173.7472	163.7329	153.4513	145.1676	135.1018	125.9441	115.3618	106.7247	100.0536	91.9788	83.3538	75.5298	68.1178	63.7741	56.3131	51.3417	46.244	42.7753	39.2401	38.2405	36.0611	31.6278	27.1534	27.0916
554	375.6687	333.5948	287.7876	248.344	214.2209	252.0759	231.3253	239.6713	258.6609	300.9335	287.5738	282.5	277.6661	257.0089	250.4185	244.428	243.8071	246.0838	244.866	245.694	246.3001	239.0328	234.6437	225.3704	219.2352	217.4507	209.9994	197.3881	184.3594	169.5899	156.3016	147.626	141.5502	127.2013	120.9146	113.8809	103.7002	95.9559	90.5163	81.1881	75.9547	67.8473	62.4482	55.2357	50.2476	45.0594	41.9704	38.2413	39.0069	35.5979	30.8574	29.6016	29.5342
556	394.6456	329.2463	221.0843	129.6003	51.7621	267.2231	207.6316	217.5059	263.2267	284.0645	280.3636	276.7252	269.8321	258.2214	245.1632	241.4114	238.1901	239.3681	239.1015	235.1775	233.5065	232.1532	225.6543	213.3836	214.7519	209.267	204.4973	192.1021	177.8981	163.845	156.9172	142.2016	134.4512	126.4973	118.8339	109.3958	101.85	94.7951	87.2603	79.3092	71.2398	66.9146	61.6219	55.1914	49.1157	44.2961	41.1593	37.2086	35.7901	34.7584	31.1064	27.5254	27.4627
558	398.9024	337.3296	226.0221	131.9001	92.2272	270.7042	183.223	228.9055	247.646	266.6645	283.585	272.6172	259.8971	244.551	239.5099	231.9185	237.6661	230.0883	230.259	229.9142	225.2463	218.4199	213.185	211.2573	209.1306	205.9267	199.6388	183.9776	171.8365	161.3484	151.2567	140.6289	130.8867	123.4298	116.7796	107.247	100.5976	93.6926	87.929	79.8725	72.0096	65.4583	60.2745	54.9702	47.944	43.5048	40.3636	36.1403	33.4031	34.8119	31.5177	28.2955	28.231
560	374.898	361.4849	228.6049	133.1094	134.012	232.9045	202.0974	212.7314	231.4849	248.6233	274.4142	257.1185	246.1581	236.6914	227.8946	229.3612	224.4391	226.8144	225.8141	220.9719	218.0083	216.4967	211.5252	206.6539	201.0875	196.6461	189.7946	180.3019	166.3424	156.2154	147.9041	137.4411	129.1279	117.9199	113.5666	105.701	95.4414	91.1668	83.929	77.6315	70.0558	64.2104	61.2732	54.419	46.7138	42.7133	39.5244	35.0221	30.2178	32.375	31.6733	28.8184	28.7528
562	354.2024	362.926	231.1512	156.8964	177.1195	249.8626	205.0483	195.978	213.9143	229.9327	251.5831	252.0976	239.8804	230.6763	221.0745	221.8425	216.2525	218.6008	217.4826	214.6108	212.7259	209.6749	199.8903	198.7265	198.8176	192.5562	183.9439	172.2369	159.6761	149.2525	141.9917	130.4854	125.7424	117.7408	106.9344	99.7116	94.0282	87.8983	79.8865	73.3847	68.0501	62.3643	57.9501	52.8234	45.4228	41.8991	38.4306	33.8526	29.803	32.8138	29.8961	27.5079	27.4452
564	375.6767	318.5807	233.6717	204.3764	221.5658	234.686	216.1014	178.6581	194.9148	210.6075	252.1496	245.1073	228.5085	221.2008	215.4067	211.3379	213.4286	210.1096	202.5864	205.7836	204.5859	204.7585	194.8692	193.8671	191.7061	186.2965	176.4436	170.4728	154.6747	145.3474	135.9116	128.4671	121.645	112.6576	104.7001	98.9219	92.1037	84.1486	79.2362	71.8386	66.333	61.1694	56.594	52.9512	48.6597	41.0422	37.2872	32.8936	29.3627	30.2657	29.0547	27.5957	27.5328
566	349.6481	312.4581	236.3111	209.9357	186.9974	166.0975	210.2433	160.8721	175.4059	212.7	236.4911	238.0149	225.8011	211.3059	209.7328	201.5976	201.7553	203.6012	201.3425	202.7829	198.491	197.3496	189.9314	186.162	181.6744	182.7085	173.6148	162.8753	151.693	144.3578	134.0367	123.79	116.1942	108.5264	102.3102	97.2644	92.0943	83.3092	78.1469	71.3221	65.1171	60.6546	55.9882	51.4009	44.3404	40.1671	36.2479	32.044	28.9146	26.4177	29.5464	27.1228	27.061
568	319.6823	356.8783	276.5493	184.9152	106.822	39.6686	209.0315	142.5844	178.9716	195.9932	220.403	224.7242	217.2365	206.9417	203.2724	198.9375	198.9327	195.7531	195.4695	193.9781	190.1082	186.3106	183.9648	181.0221	181.6008	171.3675	166.2375	157.6961	146.2738	137.5938	128.8083	119.6368	114.2967	105.2284	100.9897	92.7313	84.0842	79.8333	76.0538	67.4376	60.1852	58.087	53.8612	49.5342	44.9836	39.2711	35.4488	31.173	28.4569	25.7644	29.0573	27.0665	27.0048
570	281.1848	321.8076	296.0167	195.0947	109.1555	69.9142	209.8862	147.5353	161.9172	178.6957	203.7302	222.4989	207.5284	200.3346	194.2024	195.6848	187.9201	187.8219	186.8247	185.8566	186.3841	179.9522	174.8967	175.6366	170.9582	167.407	161.6507	150.2709	142.5655	135.4849	124.8659	117.9257	109.6452	102.5364	96.7681	89.1802	83.2834	79.7242	72.262	66.5073	62.8159	56.1002	52.3193	49.6728	44.5105	38.792	34.6084	30.7261	27.9434	25.0787	27.9855	25.2266	25.1691
572	295.453	318.4025	265.8075	192.5447	105.5899	101.3301	195.4646	165.1328	144.5976	161.7325	186.8743	214.3416	203.7867	197.4563	191.1885	188.9355	185.9779	183.2814	184.515	179.7673	178.5775	179.1912	172.4089	167.117	164.2646	163.5523	153.8793	148.7314	137.3933	129.7571	124.6247	111.6049	108.0809	102.254	93.9727	86.9752	81.6622	75.8488	70.1099	63.9134	59.1826	55.7643	53.1781	47.5914	44.2639	37.9194	33.7984	30.3161	27.4023	24.4126	25.9219	24.9455	24.8887
574	273.0838	266.3727	275.0348	189.795	121.2711	133.836	196.2456	154.6013	126.6197	144.6999	169.3503	201.3474	191.9164	194.2172	183.4956	181.212	181.3846	170.6197	177.0697	175.1266	171.3208	169.929	165.6507	163.3534	160.925	155.2747	147.9918	141.4425	135.0164	125.4586	117.5836	108.6277	102.963	98.1192	90.6676	84.1064	78.5529	73.4679	69.4664	64.8278	58.1797	53.285	49.9682	47.5762	41.4371	39.0709	32.941	29.8157	26.8266	23.7095	20.505	23.9371	23.8826
576	287.0367	259.2395	257.8184	186.843	157.2287	167.4365	179.1322	159.9416	107.9844	127.0288	171.6422	189.7294	189.8797	186.2554	179.2189	178.5098	177.0005	167.9016	173.458	165.7845	170.3415	167.8726	158.3931	158.6951	155.5078	151.1366	148.6578	137.0398	129.67	121.1092	114.8298	106.2316	98.945	94.2481	88.1028	82.3673	77.3015	71.3728	65.7312	61.5266	56.2657	53.1351	47.8681	44.9901	42.7013	37.7498	32.0357	29.2513	26.1411	22.969	20.0396	23.3306	23.2775
578	275.2122	222.5906	231.7095	183.6891	157.7826	134.5631	116.5702	154.8811	88.6949	143.7188	157.7581	177.6294	178.1516	178.8056	173.7622	168.1554	167.0425	169.1569	163.4488	163.7742	158.1418	158.4284	154.7552	156.4077	150.9741	144.4897	139.1753	132.0539	125.7971	119.8513	109.39	103.626	98.9136	93.887	85.8161	79.5741	74.9016	70.38	65.9509	58.6597	54.2568	53.1514	47.5559	43.7184	40.0722	37.408	34.1432	28.6518	25.4183	22.3704	19.5476	22.2122	22.1616
580	229.9439	200.6378	224.8631	199.1588	123.9311	59.081	3.7157	163.5379	119.556	129.8271	143.3518	165.0515	177.6004	168.7669	166.3277	162.9286	158.2094	154.022	162.9566	157.8755	158.0089	155.2695	155.2155	151.8668	145.0742	138.3255	138.6179	130.3632	122.2142	113.2359	107.4147	97.8189	93.9746	90.0065	84.6029	77.5178	70.3818	68.1409	62.9836	59.1514	52.4801	49.3562	44.5981	43.0273	40.5185	36.9025	35.4663	28.0178	24.7495	21.8318	19.0293	19.6459	19.6011
582	212.9336	156.387	196.6257	184.1757	117.2604	59.4968	32.7078	158.2036	116.0733	115.4709	129.5852	152.0412	172.9104	165.1701	163.8854	161.5683	159.293	153.3278	156.1488	155.6035	151.3724	149.6107	140.8306	142.6915	142.038	138.1145	133.7457	128.0926	117.1569	108.6931	103.5079	96.154	91.2836	86.7494	80.4058	73.6985	69.6699	65.4515	61.0691	58.2805	51.0449	48.7082	45.6041	40.3323	37.6619	34.9173	32.0627	27.3573	24.2382	21.2709	18.4902	15.728	15.6922
584	182.8249	202.7948	179.2787	170.7059	126.7504	67.4566	62.675	146.4774	115.6171	100.6082	116.4618	138.5464	159.3029	159.1702	161.2807	152.3708	149.4768	146.1707	148.6251	149.5693	148.0613	148.7973	142.1568	136.214	134.1309	134.3763	129.4007	125.1779	114.2514	106.2017	99.5143	93.4018	86.7139	80.8668	78.9056	73.1182	67.0352	62.7235	58.7907	52.2143	50.2179	46.776	44.6558	40.4312	39.0673	33.8747	31.7221	27.3683	23.6982	20.7486	17.9243	13.6327	10.8656
586	172.1283	162.8822	169.4795	162.1536	136.4623	87.9284	93.6081	155.552	133.2953	85.2267	102.8606	138.976	150.1418	152.0225	152.0428	150.3517	148.9526	144.9291	150.3281	140.7927	143.6647	138.7041	136.6054	133.1978	133.3327	129.9226	125.0872	115.8182	112.239	103.0032	95.3787	90.1278	87.1426	79.59	73.5399	68.918	66.423	60.2084	58.0496	52.7897	49.9702	44.9198	42.483	40.0704	36.4054	33.5841	31.6674	27.4522	23.1256	20.1964	17.6209	11.4629	4.6062
588	146.5462	115.4627	169.7285	158.8328	146.3929	121.5163	125.4985	132.7946	117.2937	69.3362	116.7289	126.9368	140.6108	143.1723	144.2703	146.4239	143.5296	141.8746	141.8417	142.014	135.7021	138.0425	129.5491	123.8518	124.9694	125.5543	121.0161	116.635	107.0215	102.426	95.3603	90.1295	81.2471	76.9836	72.7531	68.4503	64.9706	59.9175	54.2618	51.9645	47.4363	43.8593	39.5432	38.9447	36.5381	33.1746	32.3345	26.3635	22.521	19.7627	17.4453	9.2196	-0.0001
590	202.4912	116.3523	139.8029	142.3185	156.5634	132.2909	113.3438	99.1975	113.1241	95.8597	104.7751	114.489	130.7368	141.4136	142.2279	140.2754	140.8996	135.9533	136.6613	139.1016	129.9811	131.546	123.1178	124.7639	122.3114	120.6665	116.2967	112.7415	102.8332	95.399	90.0981	86.0664	80.113	75.7404	70.4923	66.2632	60.5659	57.0713	53.7604	47.2698	44.663	42.8816	40.5971	36.229	35.7552	31.1167	29.4324	28.1456	21.8882	19.6082	16.2548	6.9051	0
592	193.5823	140.2181	143.0109	135.1123	146.714	95.2855	52.1439	14.044	102.5476	97.5991	92.766	103.3681	120.957	136.6046	140.6082	134.6186	130.377	133.252	130.8175	126.0021	129.4398	123.1564	125.3572	122.193	119.1742	115.6427	113.1255	106.3263	98.8168	96.8854	89.6532	80.0265	76.5787	74.8047	70.0839	66.7113	60.0902	56.0242	52.9978	46.9718	43.3772	40.3353	38.2111	35.8172	32.8148	31.8056	30.1956	26.3775	23.9024	19.5109	14.0563	6.1199	0
594	175.9185	141.8671	147.1186	128.6652	160.0109	103.4016	52.3533	40.2691	123.4857	94.9852	80.268	93.1722	110.7476	135.1666	130.7628	131.3196	131.4179	129.7898	130.4288	125.744	127.0104	118.7393	118.2447	120.7139	114.7667	114.2862	108.3367	108.0079	99.4477	89.946	86.1233	79.2834	73.9183	69.5289	65.7888	63.726	58.5531	54.2969	49.3947	45.2325	42.5274	40.5929	38.3291	37.0252	32.7403	30.472	28.2416	26.7725	23.8709	19.3972	12.9272	0	0
596	152.9116	141.9614	87.1788	141.1499	162.4698	97.1832	73.1268	67.4862	124.531	102.6179	67.311	82.5947	109.5098	126.4851	125.199	125.5447	125.237	128.3084	119.5602	123.8794	120.9081	118.0998	117.3668	113.0743	111.2382	109.3921	109.1927	99.7069	96.4973	89.0079	84.5552	75.6796	72.7046	69.8217	64.4656	59.824	58.3307	51.8093	50.2215	44.957	41.7413	39.3795	36.5483	34.5897	32.1819	29.84	28.3649	25.0749	23.0318	19.2754	12.6783	0	0
598	149.3393	131.7911	85.8592	141.8486	152.2315	112.4227	102.1934	95.7346	119.485	98.7923	53.8779	81.5746	100.2545	117.4641	123.0503	123.6167	121.6583	120.8749	118.3359	119.3824	120.54	114.2101	115.7108	109.5287	106.725	106.5424	102.7202	96.9393	92.9019	85.3543	81.7122	72.9642	71.9508	67.8439	64.48	58.5256	55.0373	51.0565	49.049	44.3315	41.2744	38.8637	35.9566	33.6743	32.4531	27.2451	28.9007	24.1802	21.4105	20.5966	0	0	0
600	171.8049	89.8089	95.8704	115.173	161.045	144.409	132.3084	125.0027	122.6228	92.8659	53.0589	71.8962	90.6043	108.0451	125.5508	116.9218	118.2403	121.8682	117.5536	117.0783	112.6401	112.3181	111.0711	107.5372	102.9205	102.914	101.6351	99.7403	87.296	82.6027	76.9837	71.7536	71.5472	66.5296	60.2988	55.6057	52.7773	50.3001	46.4743	43.9424	40.1726	36.7449	34.7	33.4703	32.6211	28.5746	26.9611	25.1269	22.11	19.7195	0	0	0
