Description	Fen2-85																																																				
EEM type	"Dilution- & Scatter-corrected, Calibrated Data (ppb QSE)"																																																				
Scan date	10/1/2013 14:01																																																				
Excitation	240-500nm by 5nm																																																				
Emission	290-600nm by 2nm																																																				
Calibration	Michael_Fluoromax4_April08 (07-Apr-2008)																																																				
Slit settings	"5nm Excitation, 5nm Emission"																																																				
Dilution	5																																																				
Row 1	Excitation(nm)																																																				
Col 1	Emission(nm)																																																				
Data	Fluorescence(ppb QSE)																																																				
																																																					
	240	245	250	255	260	265	270	275	280	285	290	295	300	305	310	315	320	325	330	335	340	345	350	355	360	365	370	375	380	385	390	395	400	405	410	415	420	425	430	435	440	445	450	455	460	465	470	475	480	485	490	495	500
290	10.2883	7.0795	7.7492	6.4694	5.3642	4.3824	3.5989	2.9817	2.0127	1.0306	0	0	0	0	0	0	0	0	0	0	0	0	0	0	0	0	0	0	0	0	0	0	0	0	0	0	0	0	0	0	0	0	0	0	0	0	0	0	0	0	0	0	0
292	5.5174	3.9377	7.3846	7.6691	6.4799	5.4186	4.7148	4.3982	0	0	0	0	0	0	0	0	0	0	0	0	0	0	0	0	0	0	0	0	0	0	0	0	0	0	0	0	0	0	0	0	0	0	0	0	0	0	0	0	0	0	0	0	0
294	9.1023	8.489	6.2634	8.8418	7.5706	6.708	6.1975	5.7841	3.1318	0	0	0	0	0	0	0	0	0	0	0	0	0	0	0	0	0	0	0	0	0	0	0	0	0	0	0	0	0	0	0	0	0	0	0	0	0	0	0	0	0	0	0	0
296	15.4624	9.6704	10.4683	9.9738	9.0685	8.2311	8.0436	7.1296	5.8094	0	0	0	0	0	0	0	0	0	0	0	0	0	0	0	0	0	0	0	0	0	0	0	0	0	0	0	0	0	0	0	0	0	0	0	0	0	0	0	0	0	0	0	0
298	12.4612	13.4169	12.5435	10.9736	10.6593	9.7017	9.8297	8.4288	6.311	0	0	0	0	0	0	0	0	0	0	0	0	0	0	0	0	0	0	0	0	0	0	0	0	0	0	0	0	0	0	0	0	0	0	0	0	0	0	0	0	0	0	0	0
300	21.1181	14.6475	16.5036	13.3835	12.2029	11.5479	11.3357	9.6895	6.7962	0	0	0	0	0	0	0	0	0	0	0	0	0	0	0	0	0	0	0	0	0	0	0	0	0	0	0	0	0	0	0	0	0	0	0	0	0	0	0	0	0	0	0	0
302	14.8499	17.7546	12.7771	15.1441	13.9211	13.5549	12.7741	11.4059	7.3825	1.5475	0	0	0	0	0	0	0	0	0	0	0	0	0	0	0	0	0	0	0	0	0	0	0	0	0	0	0	0	0	0	0	0	0	0	0	0	0	0	0	0	0	0	0
304	26.1559	17.0511	17.7281	14.8169	13.5499	15.5705	14.2182	13.1293	7.9708	2.7361	0	0	0	0	0	0	0	0	0	0	0	0	0	0	0	0	0	0	0	0	0	0	0	0	0	0	0	0	0	0	0	0	0	0	0	0	0	0	0	0	0	0	0
306	18.9351	20.8805	15.1363	15.6303	16.4432	17.5857	15.9879	14.2837	8.5568	3.9272	0	0	0	0	0	0	0	0	0	0	0	0	0	0	0	0	0	0	0	0	0	0	0	0	0	0	0	0	0	0	0	0	0	0	0	0	0	0	0	0	0	0	0
308	32.4525	22.1452	14.4587	16.9725	17.097	19.5977	17.7542	14.8645	9.8387	5.1191	0	0	0	0	0	0	0	0	0	0	0	0	0	0	0	0	0	0	0	0	0	0	0	0	0	0	0	0	0	0	0	0	0	0	0	0	0	0	0	0	0	0	0
310	16.5281	22.4092	20.4177	14.8453	18.1105	19.8561	19.5242	15.4461	11.1229	6.3132	1.4629	0	0	0	0	0	0	0	0	0	0	0	0	0	0	0	0	0	0	0	0	0	0	0	0	0	0	0	0	0	0	0	0	0	0	0	0	0	0	0	0	0	0
312	22.8185	27.3569	20.3467	18.5926	18.3173	20.5521	21.1691	16.621	12.2784	7.4642	2.9109	0	0	0	0	0	0	0	0	0	0	0	0	0	0	0	0	0	0	0	0	0	0	0	0	0	0	0	0	0	0	0	0	0	0	0	0	0	0	0	0	0	0
314	21.3476	22.051	22.8753	20.2613	17.1065	20.0116	22.7963	17.7828	13.3655	8.6179	4.3442	0	0	0	0	0	0	0	0	0	0	0	0	0	0	0	0	0	0	0	0	0	0	0	0	0	0	0	0	0	0	0	0	0	0	0	0	0	0	0	0	0	0
316	28.2586	27.9324	23.8794	21.8127	18.8651	21.6978	23.93	18.8686	14.3926	9.7269	5.7435	1.2615	0	0	0	0	0	0	0	0	0	0	0	0	0	0	0	0	0	0	0	0	0	0	0	0	0	0	0	0	0	0	0	0	0	0	0	0	0	0	0	0	0
318	30.0734	26.452	24.0125	20.5756	19.2149	19.9389	23.1918	19.8659	15.3626	10.8751	7.0944	2.4931	0	0	0	0	0	0	0	0	0	0	0	0	0	0	0	0	0	0	0	0	0	0	0	0	0	0	0	0	0	0	0	0	0	0	0	0	0	0	0	0	0
320	26.1545	27.535	25.4588	21.5613	21.2501	21.2404	23.038	20.8333	16.3049	12.0875	7.7392	3.6947	0	0	0	0	0	0	0	0	0	0	0	0	0	0	0	0	0	0	0	0	0	0	0	0	0	0	0	0	0	0	0	0	0	0	0	0	0	0	0	0	0
322	34.4945	28.4978	25.2193	23.543	19.9433	18.6593	23.3155	22.4353	17.1392	13.2054	8.327	4.8437	1.0978	0	0	0	0	0	0	0	0	0	0	0	0	0	0	0	0	0	0	0	0	0	0	0	0	0	0	0	0	0	0	0	0	0	0	0	0	0	0	0	0
324	27.0762	27.4051	28.7173	24.7179	20.8963	21.577	23.7521	20.5278	17.9352	13.6547	9.1066	5.9513	2.158	0	0	0	0	0	0	0	0	0	0	0	0	0	0	0	0	0	0	0	0	0	0	0	0	0	0	0	0	0	0	0	0	0	0	0	0	0	0	0	0
326	38.9573	30.2695	26.0667	22.5743	19.2506	19.2944	21.3558	21.0127	18.6845	14.0738	10.062	6.6076	3.1793	0	0	0	0	0	0	0	0	0	0	0	0	0	0	0	0	0	0	0	0	0	0	0	0	0	0	0	0	0	0	0	0	0	0	0	0	0	0	0	0
328	33.9	27.403	28.122	21.0321	19.0371	20.0336	21.1776	20.4325	20.072	14.4619	10.9717	7.2326	4.1602	1.1123	0	0	0	0	0	0	0	0	0	0	0	0	0	0	0	0	0	0	0	0	0	0	0	0	0	0	0	0	0	0	0	0	0	0	0	0	0	0	0
330	28.4353	31.9939	26.0357	20.0954	22.0842	19.6256	21.3303	21.4836	18.8307	14.8248	11.4645	7.9595	5.1015	2.1824	0	0	0	0	0	0	0	0	0	0	0	0	0	0	0	0	0	0	0	0	0	0	0	0	0	0	0	0	0	0	0	0	0	0	0	0	0	0	0
332	31.658	30.9438	27.2216	23.1616	19.5694	20.4071	21.4312	21.3083	20.006	14.9998	11.8017	8.6866	6.1301	3.1758	0	0	0	0	0	0	0	0	0	0	0	0	0	0	0	0	0	0	0	0	0	0	0	0	0	0	0	0	0	0	0	0	0	0	0	0	0	0	0
334	31.0044	30.313	26.4314	22.6782	20.4842	19.3247	19.1563	20.311	19.5431	15.9756	12.0966	9.3539	7.0858	4.1041	1.2304	0	0	0	0	0	0	0	0	0	0	0	0	0	0	0	0	0	0	0	0	0	0	0	0	0	0	0	0	0	0	0	0	0	0	0	0	0	0
336	34.5858	32.0694	29.2119	26.4896	21.5524	20.1854	19.2073	20.0023	18.9297	16.5839	12.3616	10.1469	7.9168	4.972	2.3851	0	0	0	0	0	0	0	0	0	0	0	0	0	0	0	0	0	0	0	0	0	0	0	0	0	0	0	0	0	0	0	0	0	0	0	0	0	0
338	36.2746	32.3433	31.9472	23.8845	20.5832	20.7403	19.7869	20.4726	19.0588	16.9426	12.5988	10.8821	8.6317	6.3466	3.4676	0	0	0	0	0	0	0	0	0	0	0	0	0	0	0	0	0	0	0	0	0	0	0	0	0	0	0	0	0	0	0	0	0	0	0	0	0	0
340	35.5211	31.7335	27.6829	25.4349	21.065	20.8362	20.3626	20.2825	18.8194	16.4398	14.21	11.5503	9.2853	7.6243	4.4766	1.6795	0	0	0	0	0	0	0	0	0	0	0	0	0	0	0	0	0	0	0	0	0	0	0	0	0	0	0	0	0	0	0	0	0	0	0	0	0
342	37.0219	32.8326	28.7924	24.173	21.6996	21.2819	20.921	20.7078	19.7399	17.7539	14.5099	12.2179	10.4607	8.6756	5.4416	3.267	0.5846	0	0	0	0	0	0	0	0	0	0	0	0	0	0	0	0	0	0	0	0	0	0	0	0	0	0	0	0	0	0	0	0	0	0	0	0
344	32.6792	35.5301	31.2553	24.7071	23.9846	21.9153	22.1627	21.6816	19.8039	18.9733	15.6676	12.829	11.5547	9.483	7.0343	4.7623	2.2142	0.2005	0	0	0	0	0	0	0	0	0	0	0	0	0	0	0	0	0	0	0	0	0	0	0	0	0	0	0	0	0	0	0	0	0	0	0
346	35.6994	32.4862	32.4824	26.2535	24.9927	22.9236	21.9081	21.7481	20.5391	18.9652	16.8356	13.9992	12.6002	10.2554	8.5476	6.1813	3.5939	1.132	0	0	0	0	0	0	0	0	0	0	0	0	0	0	0	0	0	0	0	0	0	0	0	0	0	0	0	0	0	0	0	0	0	0	0
348	37.884	36.0747	34.8139	28.8957	24.6391	21.6994	22.4964	22.3177	21.5913	19.8292	18.3656	16.4285	13.608	11.6539	9.9164	7.536	4.9082	2.7469	0.6285	0	0	0	0	0	0	0	0	0	0	0	0	0	0	0	0	0	0	0	0	0	0	0	0	0	0	0	0	0	0	0	0	0	0
350	40.3611	37.566	35.4942	27.8611	25.4913	24.2795	23.2358	22.8843	22.6532	20.253	19.242	16.8179	14.5483	12.9684	11.1283	8.712	6.1513	4.1787	1.8871	0.3647	0	0	0	0	0	0	0	0	0	0	0	0	0	0	0	0	0	0	0	0	0	0	0	0	0	0	0	0	0	0	0	0	0
352	43.7724	41.7621	34.7727	30.707	25.9368	25.3713	24.2922	24.3326	22.9457	22.0683	21	18.3511	16.4333	14.2017	12.2662	9.8185	7.3245	4.8325	2.9879	0.8736	0	0	0	0	0	0	0	0	0	0	0	0	0	0	0	0	0	0	0	0	0	0	0	0	0	0	0	0	0	0	0	0	0
354	45.2275	43.5784	37.0755	30.9931	27.2994	26.0123	24.5179	24.2781	24.4638	22.5809	21.2259	20.1151	17.7188	15.3512	13.2313	10.854	9.0374	6.7311	4.1138	2.0727	0	0	0	0	0	0	0	0	0	0	0	0	0	0	0	0	0	0	0	0	0	0	0	0	0	0	0	0	0	0	0	0	0
356	48.9258	45.5306	35.8593	33.2976	29.4491	27.5434	25.7435	24.487	25.3999	24.1134	22.2649	21.7788	20.0276	16.4736	14.7685	13.0519	11.1778	8.549	5.7629	3.0025	1.2733	0	0	0	0	0	0	0	0	0	0	0	0	0	0	0	0	0	0	0	0	0	0	0	0	0	0	0	0	0	0	0	0
358	49.0108	44.6479	40.1516	34.1737	30.937	27.5906	27.2912	26.878	25.33	26.1822	23.8642	23.199	21.5395	19.3279	16.8538	15.1833	13.05	10.3062	7.3409	4.6599	2.7803	0	0	0	0	0	0	0	0	0	0	0	0	0	0	0	0	0	0	0	0	0	0	0	0	0	0	0	0	0	0	0	0
360	49.3033	48.6744	41.649	37.2885	33.0833	29.3724	29.164	27.7285	28.4127	27.4658	25.6469	24.5737	23.5874	21.1799	18.8362	17.0158	14.8315	11.98	9.1544	6.1625	3.4326	1.2616	0	0	0	0	0	0	0	0	0	0	0	0	0	0	0	0	0	0	0	0	0	0	0	0	0	0	0	0	0	0	0
362	58.8467	50.3891	42.4292	39.9916	34.2298	32.7057	30.6526	28.7677	30.0437	28.2585	27.0021	26.7847	25.2012	22.8088	20.8621	18.7895	16.4728	13.8365	10.958	7.6881	4.8786	2.3161	0	0	0	0	0	0	0	0	0	0	0	0	0	0	0	0	0	0	0	0	0	0	0	0	0	0	0	0	0	0	0
364	57.1434	53.9197	47.3272	42.4002	36.6689	34.0225	32.7335	31.0202	31.599	30.418	29.3347	28.5692	27.5407	25.8428	22.8428	20.5008	18.0566	15.9662	12.7022	9.0376	6.399	3.6103	0.8521	0	0	0	0	0	0	0	0	0	0	0	0	0	0	0	0	0	0	0	0	0	0	0	0	0	0	0	0	0	0
366	64.783	57.247	52.0837	47.0335	40.4971	34.9644	34.9541	33.4465	32.7476	31.3845	32.1779	30.7106	29.8851	28.1947	25.0514	22.1678	19.9298	18.0381	14.3985	10.8419	7.4237	4.5889	2.1829	0	0	0	0	0	0	0	0	0	0	0	0	0	0	0	0	0	0	0	0	0	0	0	0	0	0	0	0	0	0
368	70.6614	62.5399	54.5401	47.6619	42.2047	37.8488	36.6164	34.781	35.268	34.8956	34.164	33.7189	32.6728	30.0105	28.0808	23.7953	21.92	19.6492	16.074	12.5987	8.9934	5.7868	3.367	0	0	0	0	0	0	0	0	0	0	0	0	0	0	0	0	0	0	0	0	0	0	0	0	0	0	0	0	0	0
370	69.0299	67.5048	55.9388	49.7756	45.7492	39.5251	39.3201	39.0935	37.2664	37.172	36.3145	35.5488	35.3644	33.3337	30.706	27.091	23.8447	21.2062	17.7391	14.3004	10.8529	7.2228	4.2839	1.5351	0	0	0	0	0	0	0	0	0	0	0	0	0	0	0	0	0	0	0	0	0	0	0	0	0	0	0	0	0
372	75.1293	69.775	60.3073	53.5702	46.7282	42.8752	41.8641	39.4617	39.9656	38.3266	39.2281	38.6861	38.1964	35.9472	33.1421	29.3877	25.8366	22.8698	19.4481	16.5572	12.881	8.7199	5.4506	2.9491	0	0.0681	0.0796	0	0	0	0	0	0	0	0	0	0	0	0	0	0	0	0	0	0	0	0	0	0	0	0	0	0
374	81.8545	74.0536	63.5691	55.7477	52.6403	45.5732	43.7012	43.5752	41.8809	42.1919	41.0243	40.9118	40.0152	38.8718	36.6263	32.4206	27.7856	25.0497	22.176	19.2922	14.8683	10.3842	6.7355	4.0167	0.9718	0.2024	0.1577	0	0	0	0	0	0	0	0	0	0	0	0	0	0	0	0	0	0	0	0	0	0	0	0	0	0
376	88.7706	78.7362	68.4132	59.5938	54.4298	48.0231	46.4437	45.3869	43.3264	44.0747	44.4103	44.4462	43.9837	42.904	38.9813	35.4017	31.0599	27.6849	24.8267	21.3826	16.8	12.0015	7.9954	5.1016	2.3609	0.3336	0.2339	0	0	0	0	0	0	0	0	0	0	0	0	0	0	0	0	0	0	0	0	0	0	0	0	0	0
378	91.6183	88.0651	75.4494	63.1163	57.7802	52.1459	50.2663	47.136	47.4635	47.0522	47.7777	49.4983	47.8419	46.1643	43.136	38.4325	34.1559	30.2323	27.3925	23.4034	18.6706	13.9946	9.4091	5.9336	3.6791	0.4614	0.1541	0	0	0	0	0	0	0	0	0	0	0	0	0	0	0	0	0	0	0	0	0	0	0	0	0	0
380	98.1113	86.628	77.0079	67.8141	60.8834	56.036	51.0339	50.5002	50.9807	49.8383	49.3708	51.892	50.2089	49.8211	45.5177	41.5352	36.4335	32.713	29.3297	25.2833	20.4926	15.9378	11.5049	7.6263	4.6522	2.0763	0.0761	0	0	0	0	0	0	0	0	0	0	0	0	0	0	0	0	0	0	0	0	0	0	0	0	0	0
382	110.75	94.3931	80.2265	69.9561	65.17	59.1473	54.522	52.954	52.8484	52.9666	53.6633	55.0732	54.1941	52.6721	49.3154	45.1499	39.9708	35.2882	31.356	27.1492	22.6399	17.9125	12.9618	9.0719	5.8786	3.3902	0	0.0687	0.0804	0	0	0	0	0	0	0	0	0	0	0	0	0	0	0	0	0	0	0	0	0	0	0	0
384	104.5109	95.4226	84.2767	75.4942	67.9152	61.0207	57.6343	56.1256	55.1395	54.8008	56.9436	57.8524	57.2162	55.8198	53.2591	47.7406	43.1558	37.5148	33.3491	28.9844	24.7534	19.8562	14.7666	10.6245	6.9593	4.2371	1.3538	0.2046	0.1595	0	0	0	0	0	0	0	0	0	0	0	0	0	0	0	0	0	0	0	0	0	0	0	0
386	112.8565	97.5895	88.82	82.2246	72.2042	64.4726	62.7574	58.454	57.7442	57.9075	59.4087	60.2637	61.5747	58.966	55.6692	50.9105	45.7857	40.6008	35.4415	31.1777	26.8504	21.8505	16.6048	12.3637	8.0303	5.3111	2.5234	0.3395	0.2382	0.0222	0	0	0	0	0	0	0	0	0	0	0	0	0	0	0	0	0	0	0	0	0	0	0
388	116.9912	101.8858	94.8532	81.8604	74.5304	67.3689	64.3953	61.4925	60.8843	60.7049	62.2415	63.9117	64.0305	62.4559	59.839	54.5077	49.199	43.3502	37.6584	33.4792	28.9564	23.7992	18.4976	14.2583	9.5718	6.4415	3.5848	0.4751	0.21	0.0444	0	0	0	0	0	0	0	0	0	0	0	0	0	0	0	0	0	0	0	0	0	0	0
390	118.7913	115.4564	95.4938	90.478	78.5861	72.8093	66.657	64.7814	63.2171	64.5831	65.1867	67.0669	68.5379	67.1896	63.3114	58.1637	52.2059	47.214	40.1808	35.781	31.0626	25.7479	20.3903	15.3924	11.6719	7.7913	4.6571	1.9614	0.1819	0.0665	0	0	0	0	0	0	0	0	0	0	0	0	0	0	0	0	0	0	0	0	0	0	0
392	128.3437	114.4128	100.7899	90.387	83.7009	73.4049	70.2914	67.3827	66.5817	66.3931	67.4977	69.9261	70.8385	70.5658	66.2307	60.5519	55.2252	49.6622	43.6801	37.8541	32.8486	27.5303	22.4786	17.4781	12.976	8.9476	5.6995	3.0314	0.1529	0.1945	0.1509	0	0	0	0	0	0	0	0	0	0	0	0	0	0	0	0	0	0	0	0	0	0
394	135.0664	119.4036	104.6422	95.1169	85.3936	78.4035	72.8433	68.0693	68.735	68.2731	69.6299	73.5473	74.4095	72.9972	70.0994	64.8115	58.0344	53.0894	45.9736	39.8993	34.9544	29.964	24.8379	19.5375	15.0048	10.8014	6.983	4.2646	1.4713	0.4265	0.2998	0	0	0	0	0	0	0	0	0	0	0	0	0	0	0	0	0	0	0	0	0	0
396	141.4363	129.5654	106.7647	100.0749	88.2254	79.6497	77.344	72.9128	71.4098	71.9167	73.5083	76.032	77.3196	77.7062	73.7073	68.1998	62.3396	56.031	49.5515	42.8809	37.4329	32.4169	27.1501	21.6041	16.2878	12.3341	8.0966	5.1091	2.4062	0.6564	0.4474	0.0211	0	0	0	0	0	0	0	0	0	0	0	0	0	0	0	0	0	0	0	0	0
398	143.5016	133.3921	115.2856	102.4958	93.5778	85.5676	79.1076	75.997	75.7497	74.5873	76.8707	79.2593	82.3823	79.8975	77.6884	71.7715	65.4204	59.2907	53.1147	46.7853	39.9504	34.8404	29.4866	23.6881	18.4406	14.0207	9.7881	6.2027	3.7546	0.8855	0.3464	0.0421	0	0	0	0	0	0	0	0	0	0	0	0	0	0	0	0	0	0	0	0	0
400	158.8864	132.8637	118.5518	108.405	98.3321	89.2549	83.8701	79.0288	77.6007	77.7198	79.9524	82.4109	85.7806	83.6898	80.561	75.6911	69.1833	63.2098	56.3873	49.847	42.4526	37.2186	31.5937	25.8061	20.5804	15.9684	11.4267	7.1689	4.8818	2.0609	0.2461	0.063	0	0	0	0	0	0	0	0	0	0	0	0	0	0	0	0	0	0	0	0	0
402	165.1529	139.6645	124.3616	110.3537	104.6874	90.6776	84.3287	79.581	81.1137	78.517	82.6291	84.8183	87.3576	88.1445	85.2136	79.6121	73.2156	66.0285	59.1647	52.6777	46.2003	39.5139	33.6295	27.9566	22.6678	17.5994	13.0105	8.8425	5.8335	3.2037	0.1462	0.1697	0.1266	0	0	0	0	0	0	0	0	0	0	0	0	0	0	0	0	0	0	0	0
404	162.4436	148.263	130.1291	116.0039	107.2046	96.9919	88.3691	84.9033	82.7309	82.8548	86.3609	88.8299	90.6918	90.7709	88.1763	82.7848	75.5928	70.0783	63.1753	55.8103	48.3847	41.7857	35.74	30.0855	24.7344	19.4383	14.5714	10.2349	6.8991	4.3199	1.6107	0.3609	0.2518	0	0	0	0	0	0	0	0	0	0	0	0	0	0	0	0	0	0	0	0
406	175.1073	150.4485	137.0426	121.4275	108.0283	99.9388	91.9507	87.2852	85.0307	85.0219	87.7492	90.997	94.0195	94.505	91.2509	87.5008	80.4182	73.5468	66.2725	59.2955	52.4396	44.117	37.9476	32.195	26.7498	21.2985	16.2247	11.3825	8.0589	5.213	2.5603	0.5512	0.3764	0.0325	0	0	0	0	0	0	0	0	0	0	0	0	0	0	0	0	0	0	0
408	174.8692	155.4855	135.4075	125.6451	111.5675	101.8722	96.9399	89.6267	89.1474	87.6598	88.966	94.8622	96.9608	97.9078	95.642	90.3309	83.862	77.4543	69.9632	62.7335	55.4835	47.3283	40.2175	34.3562	28.6459	23.1907	17.8857	13.2609	9.2141	6.2002	3.5628	0.7416	0.3258	0.0648	0	0	0	0	0	0	0	0	0	0	0	0	0	0	0	0	0	0	0
410	181.3101	165.0904	142.8983	130.1971	119.4197	107.1567	98.9545	93.328	92.186	89.6172	93.0763	96.3763	99.2587	101.1791	98.6629	92.6633	87.6507	81.318	73.4407	65.733	58.9331	50.6341	42.4828	36.3492	30.5378	25.2888	19.741	14.7669	10.6266	6.8677	4.7164	2.147	0.2754	0.0971	0	0	0	0	0	0	0	0	0	0	0	0	0	0	0	0	0	0	0
412	180.1391	165.8767	147.8973	137.8401	123.0342	111.8832	101.9967	98.3646	94.1755	94.4762	94.0265	98.7796	101.5504	103.0833	101.3976	96.5903	90.4666	83.8219	77.3429	69.8071	62.0989	54.224	44.7468	38.4737	32.8503	27.5945	21.5937	16.5372	11.9907	8.4044	5.6996	3.3624	0.2252	0.2643	0.1968	0	0	0	0	0	0	0	0	0	0	0	0	0	0	0	0	0	0
414	188.5055	169.7132	150.1009	139.1293	126.6205	113.2854	104.6469	96.7062	96.6431	94.672	96.8146	99.8289	104.9148	105.5283	103.743	99.8153	93.8847	87.7925	80.1705	72.6324	64.9782	57.2302	48.6121	40.8085	35.1585	29.4368	23.4425	17.6904	13.4005	9.475	6.6268	4.266	1.6622	0.5659	0.3931	0	0	0	0	0	0	0	0	0	0	0	0	0	0	0	0	0	0
416	190.8486	174.6938	152.9523	142.1722	130.1469	115.7417	107.0007	101.1728	98.534	95.6617	97.6344	103.4367	107.0821	107.3769	106.3706	103.1689	97.0182	91.2437	83.9438	76.2957	68.4237	59.9138	51.6126	43.2377	37.5482	31.3466	25.3451	19.3869	15.0523	11.0262	7.6245	5.1277	2.9726	0.8686	0.5901	0.1041	0	0	0	0	0	0	0	0	0	0	0	0	0	0	0	0	0
418	200.4555	181.5323	164.2374	146.5366	131.4937	121.6263	111.2723	103.2281	99.9474	98.9122	101.3079	104.9588	110.1011	110.064	110.8783	105.4771	99.981	94.771	87.0866	79.7964	71.1937	63.4674	54.4207	45.7782	39.5709	33.337	27.3577	21.3641	16.3037	12.2039	8.77	6.3061	4.1304	1.1744	0.6364	0.2087	0	0	0	0	0	0	0	0	0	0	0	0	0	0	0	0	0
420	217.5754	193.5288	165.0151	150.0192	137.088	125.22	115.3548	107.3137	102.4352	100.3178	101.2366	107.0389	110.761	112.288	112.778	109.1907	103.9374	97.5104	90.8729	83.0878	74.7012	65.3765	56.592	48.3365	41.651	35.4279	29.3558	23.3549	18.1039	13.9032	9.7453	7.0631	5.1091	2.647	0.683	0.3141	0	0	0	0	0	0	0	0	0	0	0	0	0	0	0	0	0
422	209.7062	186.4545	173.0021	154.3997	143.0363	128.4854	116.6241	107.4417	104.8258	103.1042	105.355	107.2186	112.0299	114.2049	114.7412	111.5955	106.9253	101.6623	93.8149	86.8867	77.8875	69.4926	60.04	51.4008	43.7998	37.5424	31.2311	25.3654	19.5916	15.1273	11.3821	8.1016	6.0274	3.7041	0.73	0.569	0.2975	0	0	0	0	0	0	0	0	0	0	0	0	0	0	0	0
424	210.5752	187.5646	175.5959	159.4858	146.1953	129.1537	118.8242	111.6181	107.4818	103.9507	106.0982	110.3167	114.4446	117.5288	117.0413	114.4081	109.9429	104.5557	97.5432	89.8576	80.6818	70.9475	62.3032	54.468	45.964	39.5272	33.1197	27.3906	21.3119	16.6822	12.5471	9.1044	6.9568	4.547	2.1869	0.9751	0.597	0	0	0	0	0	0	0	0	0	0	0	0	0	0	0	0
426	220.0457	201.2896	178.9309	163.0654	148.7403	134.3533	123.7074	113.2201	108.5589	107.1731	106.3423	110.7198	115.2645	118.7206	118.3116	115.6353	112.0108	107.1204	101.1077	93.0228	84.2111	74.9418	65.5092	56.8296	48.2224	41.5207	35.2335	29.2802	23.0817	18.4627	13.876	10.3161	7.8965	5.8206	3.3075	1.3861	0.8999	0.1821	0	0	0	0	0	0	0	0	0	0	0	0	0	0	0
428	216.3606	197.4466	180.1512	163.6565	154.5775	136.1492	123.8375	117.2628	109.3483	106.2882	109.6953	113.3441	117.5602	119.5992	119.5284	118.9226	114.7614	109.7018	102.8664	96.1211	87.0883	77.4254	67.4121	59.1943	51.3627	43.6041	37.4288	30.8401	24.9094	19.3931	15.1669	11.8326	8.9498	6.5413	4.2182	1.8039	1.0295	0.3666	0	0	0	0	0	0	0	0	0	0	0	0	0	0	0
430	220.2781	201.2886	186.3594	167.8447	156.3358	140.9772	128.2697	116.8437	112.2387	109.0919	109.3549	114.4556	119.0331	122.0582	122.4016	121.2635	117.2437	113.2549	106.7796	99.3234	90.1748	81.2758	71.0173	62.363	53.735	45.7129	39.2501	32.4188	26.7602	21.1849	16.6639	12.9768	10.1118	7.5292	5.2509	2.7861	1.1606	0.5534	0	0	0	0	0	0	0	0	0	0	0	0	0	0	0
432	228.6457	206.8958	185.9889	170.1835	157.8979	140.0752	131.4472	120.078	113.2566	110.438	111.0788	114.624	118.5069	121.5711	122.9605	122.9634	119.4224	115.5425	108.5962	101.8612	92.409	84.2121	73.6726	64.4553	55.9424	47.7944	40.846	34.2925	28.5919	22.9743	18.1464	14.272	11.013	8.6075	6.2998	4.0524	1.2919	0.8288	0.3184	0	0	0	0	0	0	0	0	0	0	0	0	0	0
434	229.4218	202.646	186.1884	174.5917	156.2902	145.3437	131.4517	118.902	113.7409	111.2233	111.1094	115.3922	119.6519	122.7046	124.5289	123.4146	121.4047	117.94	111.5167	104.0926	94.9484	86.1	75.574	66.3042	58.6064	50.119	42.4578	36.1858	30.4211	24.7828	19.3818	15.5606	12.4786	9.5407	7.1805	5.1189	2.5244	1.1946	0.6401	0	0	0	0	0	0	0	0	0	0	0	0	0	0
436	220.36	216.1404	192.7621	176.1	161.3181	148.7039	135.0565	124.2154	117.2629	113.5568	112.4494	117.1068	121.3909	124.4681	126.3837	125.0487	124.3016	120.4706	114.0809	108.0087	98.5191	88.4469	78.0723	68.4098	60.6521	52.656	44.1424	38.1259	32.3111	26.6449	20.875	16.9404	13.5746	10.4936	8.1601	5.9322	3.5225	1.5663	0.9664	0.1812	0	0	0	0	0	0	0	0	0	0	0	0	0
438	223.2205	211.7411	195.4529	181.2827	168.2524	149.6185	135.0922	125.5097	117.7584	113.8271	113.5928	117.0968	121.1314	124.87	127.2007	126.999	125.8856	121.8262	116.8853	109.8557	100.5665	90.8131	80.1973	71.1995	62.4132	54.2283	45.9055	39.9396	33.8878	27.9928	22.2802	18.1554	14.6979	11.7628	8.9753	6.6937	4.223	1.9451	1.078	0.3652	0	0	0	0	0	0	0	0	0	0	0	0	0
440	230.5032	216.1721	197.4335	182.7487	162.8427	149.6633	136.7084	124.6941	119.5997	114.3244	114.3648	118.3044	121.1169	124.6055	128.2647	129.0732	127.9837	124.6777	118.9802	112.0665	102.6788	93.1426	82.5372	72.4337	64.3187	56.5971	47.8819	41.2018	35.102	29.1196	23.7054	19.2645	15.8408	12.8853	9.8387	7.5683	5.2577	2.9543	1.1912	0.552	0	0	0	0	0	0	0	0	0	0	0	0	0
442	228.9174	220.3959	193.4678	181.0142	165.4801	154.1477	139.2179	127.5176	120.2152	115.0221	114.7409	116.9732	123.3825	125.7866	128.4203	129.4652	128.4908	125.772	121.5932	114.1962	105.5977	94.7829	84.3441	74.2946	65.1284	58.9198	50.2338	42.4464	36.3034	30.1439	25.1312	20.3517	16.7284	14.0186	10.9903	8.4271	6.1125	3.8266	1.305	0.8385	0.3272	0	0	0	0	0	0	0	0	0	0	0	0
444	238.5074	213.5539	198.6327	187.2342	172.0069	155.6781	141.5352	126.4394	120.8294	114.6406	115.9936	117.6225	122.3671	126.1619	129.4459	129.8218	128.9658	126.8311	122.0622	115.3646	107.7333	97.265	85.7939	76.2749	68.0282	60.0676	51.3031	43.7048	37.4245	31.1798	26.5751	21.5739	18.0475	15.0805	11.9711	9.2524	6.9776	4.677	2.4371	1.2271	0.6589	0	0	0	0	0	0	0	0	0	0	0	0
446	224.8624	215.0475	196.0675	188.4683	174.5594	153.5453	142.4981	129.527	120.9216	116.3768	115.8578	116.8806	122.8234	126.0142	129.7373	131.0745	129.847	128.6526	123.6823	117.9507	108.2221	98.8355	88.0866	77.9795	69.6184	61.5315	53.079	45.0064	38.5357	32.6887	27.8335	22.8261	19.7109	16.4116	13.2935	9.88	7.7797	5.6076	3.5368	1.622	0.9957	0.1848	0	0	0	0	0	0	0	0	0	0	0
448	240.2304	221.1018	199.5735	187.8541	173.0253	158.9507	143.754	128.4152	123.0645	116.1806	115.2467	117.8669	122.5324	125.4207	127.8156	130.5008	131.5802	129.3787	125.5665	117.6757	110.0533	100.4908	89.5054	80.1978	71.2852	63.2007	55.2678	46.5293	39.6854	34.2395	28.6793	24.1107	20.302	17.3349	14.1076	10.9744	8.3619	6.443	4.261	2.0239	1.1047	0.3726	0	0	0	0	0	0	0	0	0	0	0
450	237.1157	218.7411	196.6416	186.4217	173.2854	157.6505	145.5176	130.4934	122.8876	115.7959	116.513	117.7697	121.8109	125.8437	130.02	130.1041	132.2526	130.0752	126.429	120.8962	111.9729	101.891	91.2185	80.8497	73.1124	64.7112	56.2829	48.5615	40.8491	35.3623	29.5354	25.4135	21.4752	18.5673	15.3657	11.8123	9.4183	7.2432	5.1601	2.8889	1.2154	0.5633	0	0	0	0	0	0	0	0	0	0	0
452	230.8443	219.3391	201.5092	185.9972	177.0216	157.516	144.6023	131.9151	123.9915	116.7066	114.2718	119.1973	120.7611	125.7116	128.9217	130.7889	132.0383	130.6841	127.2463	121.6017	113.778	103.0485	92.8265	81.9326	73.9609	66.0148	57.7879	49.4103	42.0462	36.2891	30.9059	26.7098	22.6756	19.671	16.0364	13.0012	10.357	7.8988	5.7219	3.6176	1.3282	0.8521	0.3333	0	0	0	0	0	0	0	0	0	0
454	236.7981	217.3679	199.2298	191.3806	175.2309	157.5394	143.4659	131.3462	123.1951	116.6062	113.5955	117.5187	121.5158	124.5543	128.0683	130.9543	131.5837	130.655	127.7366	121.155	114.1722	103.8014	94.4612	83.5526	75.5324	66.9169	58.9462	50.45	43.4127	37.2267	32.2959	27.9498	23.8935	20.686	17.0281	14.1156	11.1675	8.7039	6.668	4.5858	2.6665	1.2412	0.6721	0	0	0	0	0	0	0	0	0	0
456	225.7558	218.1994	203.8342	186.9784	175.1009	159.1303	146.4143	131.0758	122.6525	116.2853	114.3097	116.4466	121.0742	123.9722	128.8214	130.8431	131.8778	130.6353	126.6316	122.1926	114.6414	105.3412	94.8266	85.3384	75.1173	68.2774	59.8071	52.475	44.535	38.2345	33.6815	29.2523	25.1678	20.7898	18.0095	14.8648	12.2841	9.5992	7.3904	5.1573	3.2536	1.639	1.018	0.1571	0	0	0	0	0	0	0	0	0
458	231.6038	216.5402	200.7359	191.1902	175.9105	160.2993	145.0047	133.3215	122.4877	118.47	114.2195	117.922	121.3713	124.9651	128.1136	129.3784	131.9438	130.7511	127.7419	123.7094	114.5867	106.9892	95.5379	85.827	77.7735	69.5906	61.5434	53.2505	45.5963	39.3154	34.8872	30.1897	25.8473	21.6234	18.928	15.6989	13.0015	10.0946	7.9086	5.9775	3.9024	2.0475	1.053	0.3177	0	0	0	0	0	0	0	0	0
460	235.337	222.5135	200.0351	185.1692	177.8733	160.4776	147.3683	133.0471	122.6469	117.3999	114.9568	116.4133	119.4664	121.6154	126.4451	130.1631	130.5131	131.7538	128.092	123.4532	115.9316	106.7595	96.1859	86.3006	77.6006	70.5977	61.7089	54.2193	46.64	40.4334	35.4542	30.7035	26.2942	22.4705	19.8791	16.8226	13.6943	11.0629	8.3348	6.4207	4.4752	2.6633	1.0885	0.4818	0	0	0	0	0	0	0	0	0
462	240.4384	216.9036	195.5765	191.8422	176.1329	161.7551	146.0386	133.0361	123.573	116.0329	115.8708	117.1667	118.8346	123.4863	125.2928	129.1956	131.0259	131.2626	129.432	122.4949	116.3376	107.4472	97.2339	86.7905	78.5899	71.3061	63.1164	55.4123	47.6116	41.4264	36.0651	31.256	26.7326	23.3569	20.5228	17.2692	14.2471	11.8159	8.9688	7.0817	5.2673	3.4807	1.1258	0.6957	0.2451	0	0	0	0	0	0	0	0
464	229.253	210.7258	201.8653	189.7755	174.3818	160.9484	148.1187	134.5824	125.4854	117.9085	113.503	115.4125	119.4737	120.4212	124.3102	128.622	129.0376	129.9143	127.8559	124.5453	117.7231	107.6824	98.431	87.6412	79.8924	72.0225	63.7822	55.9188	48.7108	42.1497	36.6804	31.7713	27.1739	24.2583	21.0369	18.3849	15.0483	12.6692	9.8147	7.6626	5.8073	4.0748	2.2001	0.9608	0.4961	0	0	0	0	0	0	0	0
466	225.5377	217.1221	198.0583	190.7006	179.6512	161.6653	146.7845	132.5257	123.8559	116.1081	112.6358	115.6608	118.0368	119.5514	125.3002	127.7106	130.1292	129.1657	127.0803	123.7431	116.5914	107.4824	97.7498	88.0886	79.6545	71.805	64.4273	56.7717	49.9179	43.3548	37.3118	32.2789	28.1317	24.9373	21.5641	19.2459	15.9161	13.2075	10.5153	8.1864	6.1573	4.6629	2.8711	1.2323	0.7531	0.179	0	0	0	0	0	0	0
468	221.7445	218.9899	198.7579	186.8278	172.9906	161.2079	147.0483	132.447	125.0665	118.3916	114.9183	114.5165	115.3876	119.6826	122.3602	124.9163	126.6705	127.8011	126.625	122.2953	115.9542	108.1477	96.5802	88.0612	80.2756	73.081	64.9271	56.8702	50.4926	44.5422	38.4556	32.7996	29.1139	25.137	22.1046	19.3934	16.7101	13.5403	11.3326	8.7764	6.9009	5.1934	3.4511	1.5105	0.928	0.3624	0	0	0	0	0	0	0
470	217.7984	208.0541	194.8004	187.468	174.1731	160.0555	146.7366	133.6566	123.7295	116.2242	111.7511	113.8836	114.722	116.7292	121.6747	123.4548	125.2681	126.7282	125.5476	121.566	114.8929	107.6702	97.7113	88.0701	80.5649	73.0436	65.619	57.5391	50.682	45.1007	39.4227	33.3234	29.6106	25.3342	22.6519	19.8327	16.9783	14.0075	11.5155	9.2738	7.3354	5.6056	4.1821	2.5288	1.1069	0.5501	0	0	0	0	0	0	0
472	214.2393	208.3885	192.447	182.108	175.1077	158.5676	146.8777	132.7463	122.7947	115.2544	111.9592	112.177	112.509	115.9586	119.9429	123.915	125.479	125.2378	124.8027	120.7858	113.4049	106.6807	96.2718	88.5179	80.5013	73.7378	65.7172	58.1435	51.1118	44.8329	39.5045	33.9312	29.9283	25.9805	23.2355	20.3251	18.1576	14.731	12.444	9.9071	7.61	6.2467	4.4895	3.2319	1.2928	0.7995	0.286	0	0	0	0	0	0
474	210.4947	203.2673	198.5453	180.2216	170.4374	157.6882	144.0636	135.1339	120.9441	114.1592	111.7205	109.1976	112.2881	115.3619	117.9317	121.2316	122.7212	122.9142	122.8579	117.9766	113.1052	105.0694	96.6552	87.4184	79.5927	72.762	65.7546	57.9632	51.97	46.2601	39.962	34.5838	30.2431	26.6351	23.7743	20.8235	18.2528	15.4823	12.7444	10.3158	8.1776	6.4505	4.9345	3.7262	2.054	1.1118	0.5802	0	0	0	0	0	0
476	206.3664	199.795	190.0528	177.3988	169.9969	157.9678	144.9354	127.4458	120.3813	113.0235	109.3969	108.8504	110.5586	112.5402	115.2372	119.416	120.7657	121.0752	120.9355	116.764	111.6819	104.1759	95.0759	86.8776	79.0447	73.8224	65.7913	58.6348	51.4614	46.2037	40.4837	35.3223	30.5268	27.2201	24.2967	21.3084	18.2295	16.1701	13.2082	10.9813	8.6496	6.8892	5.6476	3.9748	2.8356	1.4313	0.8816	0.1865	0	0	0	0	0
478	201.8761	195.9833	186.2441	177.2096	166.6329	155.9653	140.293	127.4389	119.3806	112.1258	107.97	109.523	108.612	111.0715	113.1421	116.9564	117.3707	119.885	117.7448	115.5243	109.1067	102.9757	93.9431	85.8191	78.6124	72.9053	65.6343	58.3062	52.0129	45.5613	40.7394	35.5951	30.7798	27.7273	24.7374	21.6811	18.6794	16.5958	14.0628	11.2715	9.0748	7.4233	5.8331	4.6587	3.1695	1.757	1.0329	0.3774	0	0	0	0	0
480	197.2318	192.032	181.7112	172.6702	164.8099	154.2395	142.136	127.1969	121.1079	110.6671	106.5995	107.3193	106.8658	108.8292	112.072	114.058	116.9374	116.7667	117.239	114.3294	108.5689	100.9158	93.6079	84.3667	78.9177	72.1021	66.0219	58.041	52.6192	45.9423	41.166	36.1911	31.8284	28.1409	25.1158	21.995	19.135	16.9612	14.4228	12.1095	9.5883	7.6312	6.455	5.2673	3.8418	2.4717	1.1874	0.5728	0	0	0	0	0
482	192.0156	187.5332	182.4553	173.3775	165.904	151.4036	142.5543	127.819	118.1697	110.7526	106.1234	105.8709	105.9095	106.2722	110.2959	112.9942	115.0465	114.9565	114.7896	112.0987	106.4966	100.1396	92.15	85.2516	78.1114	72.5509	65.9899	59.0096	51.7859	46.2868	41.0068	36.4072	32.1045	28.4973	25.4435	22.2062	19.5554	17.1318	14.9496	12.3082	10.23	7.9772	6.7466	5.502	4.3183	2.9003	1.3426	0.8124	0.2722	0	0	0	0
484	186.6801	182.9253	177.0664	170.0772	162.0094	151.8048	140.6304	126.3542	117.3534	110.7654	104.8733	103.8592	104.035	106.2356	108.2768	111.3223	112.108	113.229	112.9061	109.8329	105.3273	98.0682	91.2911	83.5929	77.7473	71.6377	65.1098	58.4318	51.9356	46.3317	41.4869	36.5983	33.238	28.8554	25.7147	22.4174	19.9804	17.4205	15.3272	12.795	10.6401	8.5078	7.1567	5.8143	4.4689	3.3496	2.0654	1.0981	0.5496	0	0	0	0
486	181.189	178.1729	173.8179	168.9162	164.5289	149.0132	137.2907	125.2382	116.0446	107.1641	103.8085	101.0499	103.0358	102.9293	106.01	108.3548	109.9828	110.5351	110.5099	108.2348	103.0029	97.1056	89.8211	81.7974	77.1356	70.9147	65.5473	58.0403	51.338	45.814	42.0823	36.8841	33.8807	29.2094	25.9521	22.8649	20.3131	17.7082	15.783	13.3105	10.9317	9.1249	7.4558	6.3264	5.209	3.7453	2.4564	1.3889	0.8319	0.1307	0	0	0
488	175.5482	173.2808	170.4514	170.0953	159.9407	148.8269	135.939	125.4904	113.9449	105.6937	101.6434	100.583	100.4973	100.665	103.9548	105.8794	107.9143	108.7569	107.1801	106.2233	101.4706	95.7011	88.513	81.8969	76.7574	70.1961	64.0498	57.7002	51.3614	47.0224	42.3159	37.195	33.9506	29.7242	26.1843	23.3123	20.457	17.9947	16.0779	13.6917	11.4586	9.5028	7.8481	6.7957	5.4227	4.1203	3.0079	1.6844	0.8665	0.2638	0	0	0
490	169.7976	168.2877	167.004	162.6897	156.8204	147.3966	134.9223	123.3538	111.349	105.1572	102.8938	100.0826	99.8832	99.6159	102.4742	103.9623	106.063	105.9607	105.6002	103.4164	99.9496	95.2994	87.8091	81.8713	75.1262	70.4941	63.9675	58.5226	51.627	46.6137	41.7797	37.0121	33.4434	30.3936	26.4166	23.5754	20.6003	18.2836	15.8933	14.2401	11.8393	10.0275	8.3212	6.7966	5.8657	4.6422	3.4277	2.3231	0.9015	0.3992	0	0	0
492	164.1009	163.9172	163.6384	162.9207	157.536	144.9358	133.9243	120.8038	112.4567	104.9919	100.8862	98.0921	98.4654	98.0408	101.1232	101.8335	104.1809	104.256	103.6205	100.3733	97.4199	92.4972	86.2382	79.3677	74.564	69.2393	63.1521	57.2364	51.5098	45.9144	41.2652	37.1133	33.835	30.2264	26.6744	23.767	20.9313	18.5924	16.1981	14.3959	12.5373	10.5381	8.5993	7.2836	6.2898	4.9484	3.8627	2.6704	0.9379	0.6121	0.2437	0	0
494	158.2815	160.007	160.1826	160.4552	150.4429	142.9277	130.8121	120.5373	111.0126	104.2746	98.9379	96.3111	96.5982	94.8945	97.5859	98.3646	100.7023	101.4494	101.8407	99.6065	95.3952	90.4612	83.8963	77.8432	73.5795	68.3781	63.3631	56.682	50.8488	46.3809	41.4046	37.3902	33.9913	30.7943	27.0603	23.9579	21.2648	18.7206	16.5057	14.6568	12.8397	10.96	8.995	7.3902	6.336	5.4083	4.1934	2.9483	1.8659	0.9043	0.4921	0	0
496	152.2927	155.9514	157.5984	155.5048	148.1545	141.1855	131.3471	119.0019	109.9879	102.5728	97.133	93.5274	94.3415	94.0665	93.7778	96.9611	97.8648	100.1327	98.4309	97.5379	93.2265	89.4326	81.9287	76.5316	72.3876	67.8454	62.1017	56.1752	50.4865	45.8663	41.9558	37.1544	33.8521	30.6393	27.2932	24.1408	21.5023	18.7497	16.8112	15.048	13.0997	10.9488	9.4593	7.9749	6.6423	5.6534	4.7619	3.6238	2.209	1.2016	0.7449	0.1554	0
498	146.1429	153.2582	152.7805	150.4041	147.2717	137.9506	123.9975	115.0921	108.4354	100.1711	95.7779	93.8906	92.4513	92.4461	92.391	94.9701	96.4328	95.8823	95.3778	94.6943	90.6032	87.0614	81.3482	75.08	70.9511	66.6548	61.7484	55.2617	50.0838	45.3208	40.9562	36.7652	33.9876	30.8521	27.4164	24.3156	21.5481	18.7706	17.1144	15.0616	13.3489	11.2815	9.8487	8.2875	6.9151	5.9575	4.9361	3.9909	2.5982	1.5038	0.8666	0.3135	0
500	143.4711	147.7836	147.8671	145.2049	142.1592	132.1988	125.1793	114.0018	106.6911	99.0696	93.5568	90.1537	91.0958	89.9179	89.4077	91.3717	93.6966	93.5105	92.7413	92.9664	88.2809	85.3051	79.3264	73.8478	69.5294	65.0667	60.3684	55.3577	49.9258	45.1113	40.8845	36.6901	33.5216	30.7686	27.4999	24.2536	21.5915	19.091	17.3009	15.0731	13.4881	11.7649	10.1494	8.8125	7.1169	6.0892	5.225	4.2775	2.9883	2.3144	0.9903	0.4744	0
502	141.613	142.164	142.3964	139.8646	137.3692	131.7897	120.3714	113.9132	103.4314	95.7998	91.0428	90.9922	88.1568	88.3727	87.9359	89.7942	90.8229	92.1089	90.5722	88.7088	87.4849	82.9013	76.7583	72.1469	68.0411	64.4791	59.6929	53.9903	48.6303	44.0957	40.5839	36.3827	33.2175	30.2818	27.6844	24.6474	21.6259	19.4084	17.242	15.078	13.5959	11.9644	10.3989	9.1248	7.3003	6.5589	5.5199	4.4721	3.425	2.6006	1.1157	0.7233	0.3764
504	135.733	136.4487	136.4109	134.4318	134.5798	127.3678	121.7887	109.4195	101.0092	94.381	91.7306	87.0367	85.7378	85.4285	86.0692	86.4828	87.4131	87.8852	86.8382	86.1707	82.6849	80.9038	75.0169	70.3984	66.7186	62.5166	57.9742	53.0548	47.3306	43.997	39.8706	35.8152	32.841	30.4393	27.5028	24.9432	21.6578	19.4857	17.1798	15.081	12.9856	12.5192	10.7814	9.5657	7.9531	6.3114	5.8548	4.8954	3.9487	2.9377	1.7931	1.0625	0.7591
506	140.7778	130.7973	130.4863	132.8442	130.675	126.5066	120.0181	107.864	100.2034	93.7299	89.1519	86.3274	84.2475	82.033	83.9227	83.5528	84.6943	85.5759	84.5245	83.3245	80.6126	77.9906	72.9002	68.5669	65.0524	62.0998	56.935	52.1722	47.4432	43.0411	38.8002	35.069	32.6306	29.6631	27.0492	24.6108	21.7129	19.4621	17.2174	15.0996	13.1748	12.5884	10.7755	9.6034	8.2891	6.8032	5.8724	5.2052	4.3473	3.2147	2.3477	1.4088	1.1495
508	125.8977	125.185	130.2954	128.7171	126.8343	126.4174	116.5032	106.8083	96.7836	91.4467	88.1589	83.7292	82.7916	81.2135	80.599	81.6893	82.604	83.1932	82.9195	80.7608	79.1119	75.1909	70.3849	66.7873	63.7511	60.2269	56.2761	51.4547	46.7605	43.0494	39.1697	34.9176	33.2216	29.5079	26.9633	24.3945	21.9945	19.4574	17.2728	15.0686	13.3808	12.5082	11.1575	9.9126	8.7051	6.8712	6.0832	5.4378	4.5877	3.6013	2.66	1.7635	1.5489
510	123.6491	126.4809	125.5968	124.4847	122.8932	119.7861	112.5785	105.1969	95.511	88.2647	83.3758	81.5627	81.0116	78.9047	77.8426	79.1572	79.1746	80.1965	79.9349	79.0318	75.5655	72.9185	69.1437	65.2577	61.5613	58.7848	54.7629	50.6478	45.6098	41.8285	38.0706	34.5217	32.3893	29.0918	26.99	24.5798	22.0661	19.4483	17.2926	15.0009	13.5882	12.5627	11.416	10.038	8.9997	7.4259	5.7699	5.3935	4.829	4.0481	3.0255	2.053	1.9564
512	121.3136	126.0088	120.7706	120.0697	118.8369	116.9153	112.1827	102.966	93.7766	87.7951	82.3462	79.4938	77.1226	75.4555	75.9954	76.7311	77.1668	77.3401	76.0447	75.7703	73.8968	71.2511	67.3698	63.7976	61.0963	57.7628	53.6821	49.5111	44.5668	41.1272	37.1623	34.3598	31.7369	29.2193	26.2351	24.2009	21.9831	19.4324	17.2402	14.9268	13.7953	12.4997	11.5858	10.3569	9.0461	8.016	6.212	5.3736	4.8915	4.1411	3.1325	2.3772	2.3718
514	118.9085	114.2155	115.8347	115.4889	114.683	111.2386	109.0928	99.9238	90.6184	83.9997	80.6897	78.2638	75.9393	73.6736	74.7797	72.7537	74.3363	75.4507	74.6798	73.3688	71.9377	69.2976	65.4425	61.6566	58.4746	56.8399	52.9308	48.6901	44.2879	40.5195	36.886	33.3601	30.7852	28.4169	26.6125	23.6358	21.5909	19.9318	17.1832	15.1474	13.8726	12.4329	11.5807	10.3639	9.5219	8.1041	6.7332	5.1563	4.8329	4.224	3.6788	2.8277	2.8213
516	116.5259	122.3413	110.8776	110.892	108.84	107.6279	105.4303	99.58	89.7411	84.1484	79.7936	76.0294	73.3591	72.9651	71.6781	71.9456	72.5825	73.0055	72.9692	70.9324	69.5935	67.4714	63.1883	60.7748	57.4853	54.8246	52.0254	47.7283	42.9251	39.4452	36.2256	32.6529	30.6191	28.1887	25.6091	23.5635	21.7192	19.4402	17.1348	15.3812	13.6942	12.3718	11.1671	10.8107	9.4963	8.1681	6.9388	5.2343	4.8755	4.5878	3.8287	3.0652	3.0582
518	114.1574	108.4408	105.885	104.8886	105.6929	104.0034	101.4933	95.3382	87.259	81.3053	76.233	73.7332	71.5409	70.016	70.0118	69.4175	70.6426	70.1623	70.7755	69.1728	67.2016	64.7199	62.2187	58.387	56.1596	52.9745	50.3843	46.0793	42.3219	38.5466	35.6667	32.2637	29.9819	27.7196	25.6983	23.4329	21.5513	19.2416	17.0944	15.3577	13.5191	12.3158	11.2042	10.7842	9.5364	8.3828	7.0769	5.5234	4.839	4.6866	3.9464	3.3574	3.3498
520	111.7084	83.6315	99.6174	101.2792	102.4523	100.2769	98.467	93.0482	85.4395	78.8393	76.3502	72.9683	69.6623	67.9777	67.9708	68.381	68.1802	67.8587	68.1093	67.2588	64.9241	62.9226	60.0213	56.9718	54.2926	52.431	49.3441	45.3895	41.1145	37.6637	34.4369	31.9817	29.4554	27.3229	24.9729	23.2013	21.2984	19.3439	17.0487	15.193	13.4719	12.2555	11.2099	10.8243	9.746	8.5545	7.5327	5.4023	4.4837	4.6921	4.2078	3.4005	3.3928
522	109.1719	83.5691	97.1924	97.5637	98.6691	96.4425	96.139	90.2778	83.0617	76.8841	73.6852	71.1623	68.8137	65.638	66.9278	65.2289	66.07	65.7581	66.1057	64.427	62.6233	60.8829	57.4216	55.9514	53.2111	50.1275	47.6353	43.7691	40.0275	37.4706	34.0882	31.138	28.9024	26.6764	24.8489	22.5324	21.0073	19.1603	17.3686	15.0198	13.4193	12.1816	11.2123	10.7356	9.7786	8.607	7.8232	6.1967	4.1379	4.6488	4.2412	3.6915	3.6831
524	106.5561	83.4846	101.1279	93.7501	94.3395	92.508	94.3219	87.8372	81.8028	76.3573	70.871	68.0556	67.3084	64.5337	64.6576	63.5683	64.2564	63.6671	63.8498	62.8211	60.9173	58.206	56.4656	52.874	51.5194	49.1536	46.3622	43.0997	39.2447	36.6236	33.3501	30.7115	28.8879	26.3792	24.4381	22.2057	20.9547	19.0283	17.0228	14.8392	13.3581	12.0989	11.2119	10.4608	9.7235	8.5993	7.8901	6.4509	4.3773	4.1848	4.5121	3.7924	3.7837
526	103.9331	83.4356	99.8424	89.9008	89.9653	91.4547	90.595	86.241	80.005	74.03	69.6636	67.2225	63.7875	63.0099	61.7749	62.2787	61.3271	61.1411	60.7479	59.5241	58.5328	57.0797	54.2168	52.1117	50.729	48.1191	45.85	41.9275	38.4326	35.4923	32.6754	29.6822	27.8825	26.0844	23.8761	21.6683	20.5466	18.6442	16.8635	14.661	13.2929	12.0197	11.2165	10.3734	9.6965	8.94	7.9738	6.8269	4.9696	3.9795	4.3398	4.1418	4.1323
528	101.2953	83.4198	93.7093	86.0061	89.7709	88.3464	86.8255	82.0569	78.1673	70.7577	67.8004	65.5311	63.7721	62.4279	60.5919	60.3481	59.0983	59.5653	59.2912	58.0161	57.0044	55.2078	53.0172	50.5701	48.291	46.7563	44.5203	40.7829	37.4493	34.8093	31.5708	29.5952	27.0935	25.3109	23.572	21.9427	20.0206	18.901	16.9265	15.0801	13.2315	12.0393	11.1603	10.2882	9.731	8.7364	8.0483	7.2433	4.9825	3.5486	4.2151	4.0971	4.0878
530	98.5683	83.3793	82.8142	86.7669	86.2282	85.1432	82.9481	81.3458	75.5781	71.4857	66.223	64.9268	60.9597	58.4293	58.7535	57.6204	58.2241	58.6521	56.5654	56.9137	55.3782	53.5437	50.9951	49.1485	46.8867	45.4598	43.4479	40.9286	36.7813	34.11	31.2901	28.9684	26.5166	24.934	22.6973	21.4575	19.8218	18.4062	16.9964	14.8616	13.1648	12.0559	10.9673	10.198	9.616	8.7036	7.9076	7.0349	5.6614	3.5992	3.7652	3.9057	3.8968
532	95.7673	83.3268	69.7754	86.7514	82.5965	81.3781	78.9756	79.089	71.9858	68.4448	63.9643	61.6866	59.9244	57.3545	56.0986	55.3116	55.8005	55.8191	55.5729	54.5312	53.8307	52.2309	50.1819	47.0667	46.5961	44.5715	42.0578	39.4322	35.9072	33.0308	30.8293	28.496	25.9568	24.3259	22.7635	21.0599	19.2149	17.982	16.5124	14.6116	13.0948	11.9381	10.7682	10.1043	9.4148	8.5799	7.9582	7.0026	5.894	3.7369	3.0523	3.8511	3.8423
534	92.8767	83.2491	71.4753	82.1191	78.8624	77.0243	74.8952	75.5864	71.6296	65.6953	64.0714	60.2822	57.6307	55.2671	55.3537	54.0365	53.942	54.5449	53.5562	52.9972	51.9429	50.3835	48.847	45.918	44.9307	43.7827	41.319	38.1904	35.3917	32.226	29.9898	27.3775	25.5153	23.8489	22.4178	20.613	19.0839	17.9781	16.2592	14.7564	13.0194	11.7468	10.6795	10.0055	9.3057	8.6693	8.124	7.4409	6.2366	4.6061	2.6163	3.8188	3.8101
536	89.9441	83.1899	73.235	82.21	75.0657	72.5955	72.5763	72.418	69.9535	65.4962	62.0083	59.0916	56.9663	54.0668	53.0831	52.7586	52.0594	51.8267	52.9827	51.8633	49.5617	48.8537	46.6915	44.902	43.8089	42.6784	40.3229	37.2823	34.8747	31.2591	29.4512	26.7413	25.2786	23.5169	22.3201	20.5703	18.8886	17.5786	16.2439	14.3912	13.0325	11.5537	10.5912	9.8964	9.1963	8.9555	7.9798	7.1682	6.1455	5.0737	2.6752	3.2491	3.2417
538	86.9635	76.7882	75.056	80.8128	71.1995	71.5094	69.7147	69.1925	66.8049	62.4942	59.4448	57.9171	55.0604	53.5031	52.0876	51.3446	51.1757	50.7747	51.3413	49.215	48.8204	46.5875	46.1842	43.1343	42.3276	41.545	38.8527	36.1792	33.6906	30.8164	28.4318	26.4184	25.0223	23.2312	21.5159	19.9403	18.465	16.8292	15.8274	14.3575	12.9606	11.3584	10.4978	9.7814	9.0861	8.3739	8.0913	7.1244	6.4571	5.2609	3.0089	2.5967	2.5908
540	83.886	78.7368	76.9009	75.1291	71.4973	68.3532	66.7644	65.8707	65.9781	61.9894	58.9862	55.6672	53.203	50.7405	49.936	49.3506	50.0092	48.6416	48.8794	48.6597	47.272	46.066	44.2405	41.8788	41.0311	39.9218	37.2936	35.2556	32.8794	29.9746	27.9027	25.4148	24.1072	22.7561	20.8626	19.7151	18.1287	16.8038	15.4913	14.1368	12.8451	11.1546	10.3883	9.6606	8.9704	8.237	7.9825	7.3654	6.2181	5.5673	3.6963	2.0797	2.0749
542	80.9043	76.6963	71.2499	66.4527	65.3697	65.2579	63.6361	62.6009	64.0299	60.8461	57.4448	53.6673	51.0183	50.6253	49.3043	49.2906	48.1895	47.1023	46.75	46.3126	45.9117	44.5635	42.8098	40.8196	40.4653	39.1236	37.0644	34.2021	31.6047	30.0479	27.6915	24.6752	23.2846	22.3266	20.9473	18.9658	17.8897	16.8731	15.2393	13.9756	12.5715	11.1157	10.297	9.5721	8.8555	8.1132	7.8552	7.2724	6.3419	5.5871	4.5164	1.8682	1.8639
544	84.1734	71.7134	59.3663	48.8203	69.5004	62.0504	60.1517	59.2155	60.9558	58.8488	55.6764	52.8071	51.7364	47.6835	48.0272	46.772	46.2481	46.713	46.8557	44.35	43.7627	43.2102	41.162	40.1708	39.4067	38.0794	35.67	33.5561	31.2455	28.5391	26.9002	24.9414	22.9102	21.3471	20.1534	18.9764	17.5036	16.5503	15.2015	13.6685	12.4413	11.4964	10.1986	9.4771	8.7048	7.9825	7.5711	7.0761	6.3588	5.6194	4.5382	2.3442	2.3389
546	89.8978	74.8744	60.2811	51.9694	68.3973	58.6986	56.5181	57.9793	58.4276	56.9985	53.163	51.1639	48.6634	46.7205	45.8856	45.7992	45.0338	44.7826	44.3324	44.1713	43.4603	42.1297	40.0967	39.0678	37.7899	36.8052	35.2581	33.2897	29.6409	27.8971	26.0562	24.1621	22.6067	21.2523	19.6698	18.5672	17.0632	15.8491	14.7704	13.7683	12.2899	11.7978	10.0878	9.3414	8.5416	7.8404	7.1879	6.9265	6.2762	5.5918	4.8415	2.8619	2.8554
548	89.1995	73.8723	59.2619	55.1604	65.8561	55.2101	57.1476	55.3751	55.7822	54.1312	52.288	50.4273	48.4573	45.737	44.5639	43.7396	44.0177	43.6657	42.9537	42.6211	41.1432	40.5986	39.2373	37.6522	37.286	35.7935	33.9522	31.8231	29.1345	27.0589	25.6293	23.4056	22.0723	20.5138	19.1674	18.1231	16.5252	15.6612	14.8257	13.1908	12.2729	11.0518	9.965	9.1791	8.3995	7.6875	7.0889	7.2079	6.1252	5.6811	5.0242	3.5154	3.5074
550	84.5063	72.8204	60.4973	58.4209	64.7968	57.9753	54.3932	52.6895	53.0542	53.6197	50.3339	47.5638	46.8236	44.253	43.8719	42.4192	41.376	42.0624	41.1364	40.8844	40.5331	39.342	37.6789	36.2207	35.6326	34.9115	33.38	30.7287	28.3509	25.8405	24.5032	22.8791	20.8863	19.89	18.5574	17.3383	16.4523	15.7145	14.0644	13.4625	12.0421	11.1694	9.9244	9.0095	8.2509	7.5452	6.9851	6.6557	6.2061	5.5304	4.9236	4.143	4.1335
552	76.8071	71.924	64.2615	61.9276	59.793	56.5203	51.7025	50.0631	50.3872	51.3015	49.1773	46.3792	44.1628	43.1101	41.9083	41.2819	41.3078	40.2337	39.9872	39.5452	39.0964	38.3201	36.6957	35.3568	34.703	33.5537	32.669	30.3278	27.5335	25.5951	23.8181	22.206	20.8907	19.5209	18.5985	17.0852	15.9397	15.0129	13.6937	12.8142	11.4558	10.6273	9.6893	8.8577	8.1274	7.4264	6.8957	6.3231	6.0842	5.7232	4.8445	4.3252	4.3154
554	79.2891	70.9664	63.6453	57.2952	51.764	55.6866	48.9088	47.3345	47.6185	49.7537	48.4125	45.522	45.0602	41.3507	40.0386	39.9659	39.8401	38.7335	39.1446	38.2359	37.2953	36.6913	35.4606	34.428	33.3389	32.4672	31.1965	29.1905	26.7171	24.8407	23.2194	21.4081	19.8489	19.0935	17.6141	16.9098	15.5398	14.8738	13.5405	12.7291	11.2795	10.4241	9.394	8.6971	8.0138	7.3005	6.8003	6.184	6.0311	5.6305	5.0571	4.5462	4.5358
556	70.7858	68.3992	52.7056	39.3886	28.0206	54.925	46.0295	44.5223	47.1144	47.8216	46.3571	45.0802	42.4741	40.4465	39.6118	38.8486	37.2792	38.7657	37.7708	36.5074	36.5105	34.7887	34.0341	32.4673	32.5905	31.228	30.3876	28.5264	26.2914	24.2305	22.5042	20.7561	19.7709	18.4248	17.1995	16.4935	15.1401	13.9793	13.1019	12.3817	11.2765	10.3373	9.5381	8.8553	7.896	7.2124	6.683	6.0401	5.9643	5.4868	4.8919	4.5607	4.5503
558	78.1049	70.2659	53.5042	39.2962	32.8875	55.8831	43.0611	45.0448	45.5792	45.827	44.855	43.1191	41.5319	38.4778	38.1345	37.6719	36.7905	36.6655	35.8026	35.2514	34.2609	34.2449	32.4805	32.1781	31.3507	30.545	29.0737	27.2875	25.25	23.4081	22.0671	20.5196	19.0476	17.6762	17.026	16.0003	14.5823	13.6193	13.0089	11.8493	11.171	10.2702	9.4216	8.7521	7.7739	7.1209	6.5239	5.8912	5.5718	5.4905	4.8848	4.3184	4.3085
560	69.804	71.8516	52.7873	38.49	37.9023	52.4581	44.6578	43.4633	43.9763	43.7514	42.8669	41.8489	38.871	37.7521	36.2557	36.1066	35.4849	35.2034	34.7906	34.3574	34.2581	33.0195	32.2302	31.074	29.9063	29.5368	28.5682	26.6817	24.9509	23.2605	21.6249	19.9119	18.7786	17.3614	16.2928	15.3171	14.2917	13.4236	12.772	11.7914	10.5778	9.9925	9.2981	8.7001	7.6443	6.9857	6.3568	5.7349	5.0639	5.526	4.8976	4.4827	4.4725
562	75.9491	68.2538	52.0221	40.835	43.0644	52.4982	47.4018	41.8133	42.0961	41.5932	41.8685	40.1075	38.1569	36.1271	35.3704	34.2113	34.4902	34.5262	32.845	33.2899	33.0311	31.8284	30.9902	29.8561	28.7893	28.4518	27.5717	25.0318	24.4973	22.1471	20.4004	19.2431	18.4617	16.864	16.2456	15.3856	13.8737	13.4742	11.9279	11.5161	10.4072	9.5996	8.868	8.2645	7.5069	6.8238	6.2034	5.5711	5.0469	5.303	4.7238	4.2923	4.2825
564	61.0583	66.6377	51.2112	46.4867	48.3765	49.6455	45.4189	40.097	39.9325	39.3548	40.4344	38.4178	36.1574	34.4283	34.1503	33.1751	33.2855	32.2151	33.1437	31.7303	31.1632	30.5529	29.56	28.804	28.0403	27.6029	26.3332	24.8193	23.4422	21.7947	19.9279	18.7895	17.5326	16.3502	15.2168	14.611	13.8215	12.6506	11.7543	10.7595	10.2171	9.8465	8.8519	8.3614	7.7142	6.6541	6.0428	5.4758	5.0273	4.9147	4.701	4.4779	4.4677
566	64.9938	65.7819	50.3858	47.8323	45.5452	43.2674	43.4835	38.3383	37.7138	38.4164	38.9028	38.2682	34.9325	33.3748	32.4262	32.3463	31.48	31.6201	31.3241	30.9537	30.5371	29.5897	28.3233	27.7884	27.0522	26.5076	26.1125	23.5538	22.3192	20.0059	19.667	18.1746	16.8877	15.7449	15.1243	14.1223	13.1551	12.2876	11.4497	10.5417	10.2258	9.363	8.7121	8.01	7.2171	6.4806	5.9168	5.4171	5.008	4.6758	4.7285	4.0889	4.0796
568	67.2311	65.7324	59.6563	46.6159	35.4639	25.737	48.2119	36.5329	37.2311	36.7651	37.3312	35.6932	35.0224	33.239	31.8452	31.0755	30.3662	30.7321	30.4211	30.0814	29.0188	28.4251	27.35	26.7647	26.5397	25.7715	24.7001	23.0127	21.6286	20.394	18.6482	17.4509	16.6039	15.4288	14.4097	13.3667	12.8654	12.2529	11.324	10.3146	9.456	9.1384	8.5607	7.89	7.2859	6.3027	5.8656	5.3575	4.9888	4.5576	4.7969	4.1669	4.1574
570	67.7373	62.5222	60.7733	47.79	36.6831	30.8799	47.7015	36.4737	35.5738	35.0467	35.6945	34.5222	33.4175	31.5179	30.1105	30.2095	29.7056	29.5195	29.3142	28.2251	27.8291	27.5948	26.4216	25.7507	25.0455	25.1643	24.1198	22.3963	21.2191	18.977	18.2346	16.733	15.6542	14.9183	13.8585	13.7059	12.276	11.6694	11.1434	9.9476	9.6201	8.7537	8.2453	7.844	7.3378	6.2744	5.8101	5.3407	4.9328	4.4335	4.5089	4.4621	4.4519
572	53.6725	66.3374	60.5688	49.6507	38.2654	36.2582	47.7982	40.3203	33.9238	33.4185	34.066	34.7612	31.709	30.099	29.8271	29.1855	28.998	28.3471	27.8158	27.9027	27.1203	26.424	25.5785	25.7893	24.7584	24.2067	23.5299	21.7699	20.2422	18.8755	17.6447	16.4338	15.7458	14.5085	13.4776	12.899	12.0855	11.081	10.6067	10.1868	9.2443	8.4111	8.1721	7.6414	7.0563	6.5583	5.7625	5.3323	4.8142	4.3128	3.9843	4.2114	4.2018
574	56.7118	64.4958	57.7934	51.548	42.0759	41.8166	49.9376	41.1545	32.1989	31.8031	32.3632	32.0142	30.0894	30.1671	29.1446	27.8199	28.5297	27.3842	26.5796	26.607	25.902	25.1876	24.8599	23.6506	23.4558	23.1928	22.9462	20.8114	19.4007	18.4207	17.5398	15.6598	14.9504	14.0243	13.2678	12.4216	11.9457	11.1085	10.4872	9.4321	8.7759	8.6188	7.8879	7.4377	6.7169	6.2038	5.7099	5.2501	4.6888	4.1854	3.6668	3.9011	3.8923
576	68.5404	62.1998	60.0845	53.4813	48.2375	47.5558	47.7578	43.0708	30.3987	30.1162	32.2579	30.795	29.9816	29.3428	27.9172	27.1993	26.7876	26.1458	26.1571	25.8298	24.6261	24.566	23.4722	22.8698	23.286	22.4614	21.5784	20.2047	18.8873	17.9254	16.4873	15.5261	14.587	13.9811	12.8818	12.0325	11.6913	10.643	9.9327	9.2261	8.6615	8.0133	7.8097	7.2257	6.6578	6.2849	5.6523	5.1263	4.5636	4.0514	3.6082	3.8024	3.7937
578	59.7958	59.2243	64.0691	55.4507	49.6028	44.2662	40.3627	42.8264	28.5235	32.5053	30.0417	29.5188	28.1653	28.7354	27.7203	26.0414	25.4969	25.2209	25.2157	24.456	24.0103	24.0051	22.7703	22.5348	22.427	21.6833	20.8092	19.8928	18.1454	16.8618	16.0889	14.7505	13.7877	13.3787	12.617	11.7523	11.0483	10.5676	9.901	9.1685	8.3532	7.8859	7.4325	6.9724	6.426	6.0736	5.5229	4.9956	4.4318	3.9579	3.5456	3.5908	3.5826
580	68.9572	60.4822	66.9886	55.6883	46.5573	38.4595	32.0649	44.1732	33.3649	30.3599	27.7402	28.1864	27.6643	25.9633	25.1573	26.1163	24.5421	25.3727	24.1669	23.8162	23.2974	22.962	22.2768	21.9719	20.9501	20.8084	19.4659	19.6312	17.8205	17.1491	15.9252	14.2534	13.5064	12.5902	12.3779	11.3949	10.661	9.8765	9.7437	8.6425	8.4154	7.7019	7.2223	6.8464	6.4137	5.9312	5.4761	4.858	4.3174	3.8833	3.4791	3.4167	3.409
582	64.9565	60.7812	55.6812	54.4621	45.9656	38.4093	34.8014	44.0324	33.5565	28.1411	25.8977	26.8057	27.2015	26.1561	24.8877	24.4973	24.7526	23.471	23.1077	23.2682	22.783	21.8942	21.4747	20.961	20.8831	19.8663	19.5488	18.0294	17.6145	16.1325	15.1784	14.1616	13.1235	12.4632	11.7297	11.0716	10.3252	9.758	9.1347	8.2231	8.1255	7.5839	7.0335	6.6416	6.1912	5.7122	5.4225	4.7149	4.2469	3.8055	3.4097	3.0173	3.0104
584	63.4074	49.1785	54.3735	53.3095	46.582	38.913	37.6123	44.5687	35.2022	25.8392	24.5291	25.3679	24.6282	23.3652	24.6861	22.9293	22.3719	23.2353	22.3301	21.8143	22.7254	21.4954	20.9168	20.5466	20.3916	19.3229	18.6143	17.7536	16.1422	15.5423	14.6672	13.6706	12.6165	11.855	11.231	10.5769	10.1763	9.379	9.0712	8.1491	7.9468	7.2584	6.7578	6.4567	6.1942	5.6358	5.1958	4.6211	4.1721	3.7384	3.3363	2.6374	2.056
586	57.0283	56.3992	51.3747	56.0827	47.1872	40.6777	40.4914	47.1778	36.0834	23.4507	23.1023	24.6893	23.5766	24.0139	24.2002	22.6975	22.394	22.2002	22.0776	20.8938	21.1285	20.4533	19.8459	19.2705	19.1315	18.8374	18.3817	17.246	15.7114	15.1505	13.9103	13.3371	12.6159	11.7875	11.0122	10.223	9.3751	9.4388	8.5322	8.1535	7.5789	7.0991	6.6131	6.4121	5.7666	5.6644	5.1924	4.4746	4.0921	3.6666	3.2309	2.2438	1.6657
588	52.049	48.0893	53.6593	50.7129	47.7812	43.7645	43.4378	44.4028	35.7737	20.9774	24.255	22.6263	22.4784	22.0732	21.9775	22.0986	22.3337	21.1074	21.3682	20.6219	20.3361	20.8602	19.5806	19.1407	18.878	18.1539	17.9104	16.469	15.5531	14.7125	13.8254	12.8807	12.4126	11.4804	10.8325	9.8822	9.3738	9.2026	8.4197	7.929	7.154	6.9942	6.5165	6.1813	5.8708	5.4285	5.2348	4.6928	4.0071	3.5764	3.1062	1.8368	0.4317
590	58.1512	58.9515	50.2768	49.6724	48.3717	44.5749	42.0139	40.8821	36.1341	23.8582	22.2543	20.4935	21.3379	22.3503	20.7913	21.6519	21.1558	20.6659	20.8061	20.2258	19.6548	19.6063	18.6594	18.5874	18.1855	17.5712	16.4979	16.2253	14.5538	14.0101	13.2704	12.5938	11.6987	11.0479	10.423	9.4664	9.2032	8.8822	8.0742	7.669	7.0715	6.889	6.594	5.9336	5.5907	5.2461	4.7834	4.6142	3.9178	3.4535	2.8407	1.4169	0
592	58.2425	51.2394	53.1805	49.5013	47.4154	39.5683	33.4093	28.7263	35.6849	24.0267	20.2601	18.8823	20.2282	21.1953	21.7587	19.7372	20.2125	19.678	19.3141	18.6877	19.3616	18.3355	18.0956	17.6015	17.607	16.8892	16.8198	15.3117	14.6408	13.5387	13.1164	11.808	11.5719	10.2921	10.0698	9.3156	9.096	8.4357	7.7766	7.2572	6.98	6.7009	6.2616	6.0579	5.4278	4.8781	4.8813	4.3504	3.9305	3.3374	2.4374	1.2937	0
594	63.3988	52.3994	50.4296	48.6372	50.3956	41.717	33.6601	31.4662	38.6518	25.2344	18.182	17.7353	19.0653	19.9077	19.9838	20.3548	20.0491	19.357	19.0548	18.3783	18.5396	17.7201	17.9538	16.4188	16.6269	16.4299	15.6198	15.1937	14.1451	13.3894	12.4998	11.8575	11.1512	10.1623	9.5798	9.4083	8.8625	8.1076	7.5193	7.1032	6.696	6.3766	5.7629	5.6327	5.248	4.7387	4.6612	4.2879	3.926	3.2149	2.2613	0	0
596	58.0361	58.0514	51.0116	48.8891	51.759	40.2552	36.6266	34.3035	38.6896	26.6942	16.0272	16.5437	18.2864	19.2042	19.2839	19.2317	19.1124	18.4515	18.6804	18.472	17.7805	17.686	16.8194	16.5235	16.5783	16.0075	15.5215	14.8644	13.8513	12.5568	12.2652	11.2962	10.8177	9.8066	9.6039	9.6284	8.3836	7.9203	7.6055	7.1412	6.3333	6.1147	5.6646	5.4257	5.0842	4.9588	4.6709	4.1868	3.8102	3.0873	2.217	0	0
598	58.0192	53.5551	49.8413	50.6794	48.7925	43.57	39.6707	37.2414	39.2501	24.1656	13.7928	16.2896	17.5431	18.4711	18.3333	18.4002	17.821	17.9415	17.4141	17.355	17.3986	17.9117	16.5248	15.8811	15.6226	16.0719	15.362	14.239	12.949	12.5657	11.4513	10.7685	10.4764	9.4542	9.1774	8.49	7.9182	7.6799	7.267	6.7611	6.2424	6.0858	5.3605	5.2967	4.9719	4.7218	4.438	4.1451	3.7385	3.4208	0	0	0
600	62.1916	51.1237	51.2674	47.6662	52.5589	46.9232	42.8047	40.2664	39.3291	24.2517	14.0425	15.5144	16.7617	17.6997	18.626	17.8275	18.1498	17.3461	17.6583	16.8668	16.9546	16.1415	15.6812	15.4574	15.6073	15.1876	14.2919	13.4923	12.8861	11.9552	11.4071	10.3746	9.7988	9.6427	8.8415	8.2245	7.7058	7.2798	6.9277	6.5558	6.2172	5.9463	5.5393	5.3573	5.0499	4.5584	4.466	3.9703	3.6665	3.2082	0	0	0
